! Center RA: 15 12 50.53293,  Dec: -09 05 59.82981 (2000.0)
! Tentative model.
! Flux (Jy) Radius (mas)  Theta (deg)  Major FWHM (mas)  Axial ratio   Phi (deg) T \
! Freq (Hz)     SpecIndex
-0.0180341    0.0565685      135.000 
-0.00550368    0.0400000      180.000 
-0.00252589      4.81232     -27.2040 
-0.000629641    0.0894427      153.435 
-0.00219587      3.00958     -23.4986 
0.00267261     0.425206     -48.8141 
0.00154587      4.99376     -40.4520 
-0.00104117      4.75849     -26.9958 
-0.000951029      1.12071     -34.8245 
-0.000349604      3.95373     -25.7873 
-0.000144176      2.20145     -24.7024 
-0.000909075     0.268328     -26.5651 
0.000668448      2.64121     -35.1342 
-0.000700491      2.36373     -23.9625 
0.00131224      5.52521     -34.3803 
-0.000324002      1.79109     -29.4275 
0.000377520     0.644981     -7.12502 
0.000248683      5.08016     -37.3210 
-0.00105951      3.09890     -23.5870 
0.000242499      5.02426     -40.1560 
-0.000977242      3.91775     -26.0418 
0.000950820      3.45809     -29.8271 
-0.000697593      4.88459     -31.6075 
0.000177596      1.41421     -45.0000 
-0.000883575      1.75636     -30.0686 
5.98136e-05     0.291204      15.9454 
0.00130278     0.252982      18.4349 
0.000329110      1.37637     -54.4623 
-0.000161295      1.13842     -18.4349 
0.00101504      1.44278     -43.8767 
0.000543306      1.40000     -53.1301 
0.000817528      2.80913     -19.9831 
0.000488098      5.10451     -37.6781 
0.000682189      2.15258     -48.0128 
-0.000154724      3.40940     -22.0511 
0.000282493     0.605310     -7.59464 
0.000693458      5.64057     -36.0572 
-0.000224260      1.17644     -35.3112 
-0.000520692      4.16038     -33.2317 
-0.000386508      3.44651     -21.8014 
-0.000445234      2.40033     -23.5747 
4.73834e-05      2.67402     -34.6409 
-0.000410782      1.20930     -34.2157 
0.000574540      2.04353     -3.36646 
0.000517571      3.06438     -35.9724 
-0.000285389      1.84564     -29.8989 
0.000206942      3.49285     -29.5007 
-0.000206017      3.22490     -23.3852 
0.000345153      1.82165     -8.84182 
0.000120785     0.690507     -10.0080 
0.000191747      5.07291     -37.9542 
0.000225930      1.43220     -54.0903 
7.58231e-05      4.96339     -40.7515 
-3.88486e-05      1.10055     -19.0935 
0.000258087      3.54739     -29.7449 
0.000221490      2.59384     -26.5651 
-0.000331794      3.18823     -23.6705 
0.000183878      2.75071     -40.8724 
-0.000217669      3.83854     -33.5245 
-0.000182887      3.82832     -26.0296 
0.000218058     0.651153     -10.6197 
7.37497e-05     0.256125     -141.340 
-0.000146469      1.81108     -30.5297 
-7.10646e-05      4.19390     -32.9322 
7.13226e-05      2.12603     -48.8141 
0.000107282      1.93039     -34.0193 
-3.60211e-05      4.82958     -31.4521 
-7.09622e-05     0.288444     -33.6901 
-3.51950e-05      1.72186     -30.7355 
-3.48201e-05      3.48368     -21.5571 
3.47874e-05      1.98595     -34.3302 
-3.49336e-05      2.31102     -23.4590 
