! Center RA: 11 59 31.83391,  Dec: +29 14 43.82678 (2000.0)
! Tentative model.
! Flux (Jy) Radius (mas)  Theta (deg)  Major FWHM (mas)  Axial ratio   Phi (deg) T \
! Freq (Hz)     SpecIndex
-0.000820498    0.0400000      180.000 
-0.00255792     0.215407      158.199 
-0.00108686    0.0400000     -90.0000 
-0.00150317     0.312410      50.1944 
-0.00119514     0.282843      45.0000 
-0.000424384    0.0894427     -63.4349 
0.000267403     0.808950      8.53077 
-0.00156693      1.17712      9.78241 
0.000795624     0.526118      8.74616 
-0.000418841      0.00000      0.00000 
0.000253699     0.848528      8.13010 
0.00140752      1.38101      10.0080 
-0.000667680      1.56000      0.00000 
-0.000469208     0.113137     -45.0000 
-0.000452757     0.974064      19.1790 
0.000495990     0.894427      10.3048 
0.000691262     0.304631      113.199 
8.58716e-05     0.840952      2.72631 
0.000389222      1.08074     -2.12110 
0.000299571      1.61988      20.2249 
0.000239106     0.304631     -156.801 
-0.000163463     0.555698      59.7436 
0.000261166     0.481664      48.3665 
-0.000247590      1.33147      32.7352 
0.000214857     0.521536      4.39871 
-0.000276782     0.572713     -12.0948 
-0.000372585     0.536656      63.4349 
0.000218563     0.880000      0.00000 
0.000417014     0.456070      52.1250 
-0.000434801      1.57835      8.74616 
-0.000161670      1.60000      0.00000 
0.000258297     0.941488      12.2648 
-6.55768e-05      1.17712     -9.78241 
-0.000143664     0.973242     -9.46232 
0.000129005     0.240000      0.00000 
-0.000127093     0.203961      168.690 
0.000158914     0.215407     -158.199 
-0.000110858     0.936376      19.9831 
7.67497e-05      1.32424      25.0169 
7.60045e-05     0.520000      90.0000 
-7.56228e-05     0.401995      84.2894 
-3.00837e-05     0.823650      29.0546 
-2.97915e-05      1.62086      15.7512 
