! Center RA: 17 33 02.70579,  Dec: -13 04 49.54840 (2000.0)
! Tentative model.
! Flux (Jy) Radius (mas)  Theta (deg)  Major FWHM (mas)  Axial ratio   Phi (deg) T \
! Freq (Hz)     SpecIndex
  0.840522      0.00000      0.00000 
  0.263971    0.0200000      0.00000 
 0.0679148    0.0282843     -45.0000 
0.00708508     0.392938      14.7436 
 0.0618791     0.388330      11.8887 
 0.0301835     0.407922      11.3099 
 0.0149015    0.0200000      90.0000 
0.00477178     0.364966      9.46232 
 0.0262836    0.0282843      135.000 
0.00466172     0.384708      8.97263 
0.00873834     0.342345      6.70984 
0.00441344    0.0200000      180.000 
0.00436132     0.451221      12.8043 
 0.0121460     0.470744      12.2648 
 0.0184104     0.340588      3.36646 
0.00807546    0.0400000      180.000 
0.00400074     0.320624      3.57633 
 0.0178795    0.0600000      180.000 
0.00376701     0.490306      11.7683 
 0.0170163     0.514198      13.4957 
0.00703602     0.340000      0.00000 
0.00351528    0.0447214      153.435 
 0.0119085     0.360000      0.00000 
0.00637374    0.0800000      180.000 
0.00919406     0.228035     -37.8750 
 0.0110923    0.0721110      56.3099 
 0.0140946     0.533667      12.9946 
0.00595670    0.0848528      45.0000 
0.00847035     0.101980     -168.690 
0.00293772     0.421900     -31.4296 
0.00282856     0.439090     -30.0686 
 0.0130880     0.483735     -29.7449 
0.00532964     0.100000      180.000 
0.00754695     0.400500     -2.86241 
0.00675508     0.113137      45.0000 
0.00727828     0.121655     -170.538 
0.00716275     0.553173      12.5288 
0.00701167     0.501199     -28.6105 
0.00459609     0.128062      38.6598 
0.00229635     0.421900     -5.44033 
 0.0127149     0.120000      180.000 
0.00228292     0.518845     -27.5528 
0.00637509     0.538516      15.0685 
0.00219811     0.441814     -5.19443 
0.00218699     0.617414     -24.9048 
0.00213766     0.635610     -24.1455 
0.00598098     0.322490      7.12502 
0.00209796     0.683520     -20.5560 
0.00207867     0.432666     -33.6901 
 0.0114475     0.557853      14.5345 
0.00205749     0.483735     -7.12502 
0.00202685     0.702282     -19.9831 
0.00393247     0.416173     -35.2176 
0.00388610     0.733757     -17.4472 
0.00546863     0.100000      53.1301 
0.00876766     0.141421     -171.870 
0.00367297     0.653911     -23.4287 
0.00186455    0.0600000      90.0000 
0.00185749     0.400000     -36.8699 
0.00184039     0.766551     -15.1240 
0.00181148     0.503587     -6.84277 
0.00349181     0.460435     -34.3803 
0.00821861     0.785875     -14.7436 
0.00331849     0.305941      11.3099 
0.00167683     0.690797     -22.1094 
0.00617339    0.0894427      63.4349 
0.00165742     0.384187     -38.6598 
0.00447872     0.140000      180.000 
 0.0103646     0.563205      16.5044 
0.00161301     0.644050     -25.7693 
0.00450404     0.428019     -37.4054 
0.00156553     0.882043      3.90049 
0.00285343     0.662118     -25.0169 
0.00588990     0.161245     -172.875 
0.00150464     0.903549      5.07961 
0.00956543     0.325576      10.6197 
0.00148383     0.368782     -40.6013 
0.00543936    0.0721110      123.690 
0.00684535      1.02956      7.81529 
0.00492117     0.680294     -24.3045 
0.00144258     0.800500     -12.9946 
0.00273584     0.353836     -42.7094 
0.00499971     0.709366     -21.5014 
0.00139281     0.901998      3.81407 
0.00445796     0.164924     -165.964 
0.00135523     0.805233     -14.3814 
0.00364869     0.820000     -12.6804 
0.00704361     0.582409      15.9454 
0.00126092     0.900888      2.54480 
0.00338443     0.396989     -40.9144 
0.00342000    0.0824621      75.9638 
0.00569837      1.05224      8.74616 
0.00434229     0.339411     -45.0000 
0.00433354     0.107703      158.199 
0.00434500     0.189737     -161.565 
0.00229114     0.940213      1.21888 
0.00203216    0.0848528      135.000 
0.00107840     0.839524     -12.3808 
 0.0176046     0.286356     -155.225 
0.00300399     0.382099     -42.8789 
0.00104906     0.980000      0.00000 
0.00735869     0.588218      17.8189 
0.00671436     0.141421      171.870 
0.00194543     0.325576     -47.4896 
 0.0123647     0.728011     -20.9245 
0.00633567      1.03247      8.91493 
0.00293921      1.00020     -1.14576 
0.000990809     0.874757     -10.5392 
0.00166113     0.698570     -23.6294 
0.000920437     0.894427     -10.3048 
0.00365626     0.160000      180.000 
0.000905643      1.02078     -2.24574 
0.00436606     0.472017     -36.3844 
0.000874790     0.950368     -8.47114 
0.000870810     0.345254      10.0080 
0.00336150      1.42352     -4.02826 
0.00626073     0.456070     -37.8750 
0.000857235      1.04019     -1.10171 
0.000841607    0.0800000      90.0000 
0.000838248     0.284253     -50.7106 
0.000824769     0.639062      20.1363 
0.00154056    0.0824621      104.036 
0.000808937      1.02313     -4.48461 
0.00229058     0.664831      21.1613 
0.00973656      1.44347     -3.97250 
0.000789896     0.325576      47.4896 
0.00223362      1.03576      10.0080 
0.000771528      1.02489     -5.59934 
0.000762096     0.362215      6.34019 
0.000748307     0.328024      52.4314 
0.000737618      1.04173     -3.30187 
0.00506507     0.316228      55.3048 
0.00466546     0.440454     -2.60256 
0.00135034     0.601664      15.4222 
0.000696892      1.02703     -6.70984 
0.00259633     0.690797      22.1094 
0.00567069      1.05546      9.81930 
0.000663785      1.04690     -6.58194 
0.000654479      1.42506     -4.83042 
0.00292158     0.516140     -35.5377 
0.00123239      1.06677     -6.45882 
0.00122023      1.44499     -4.76364 
0.000612966    0.0894427      116.565 
0.00214279     0.620967      14.9314 
0.00112983      1.33222     -7.76517 
0.00576783     0.161245      172.875 
0.00297333     0.672309      22.7510 
0.00165614      1.46219     -3.13636 
0.000561389      1.31240     -7.88314 
0.000538380      1.10887     -7.25319 
0.00253474     0.313050      63.4349 
0.000526859      1.46342     -3.91825 
0.000994255      1.09563     -21.4130 
0.000520632     0.196977      23.9625 
0.00129495      1.44056     -1.59114 
0.000512840      1.35484     -8.48894 
0.00150541     0.746726     -20.3764 
0.00142011      1.46492     -4.69868 
0.00643532     0.500000     -36.8699 
0.00246794      1.11427     -21.0375 
0.000495396      1.40014    -0.818455 
0.000490997      1.36132     -10.1543 
0.000934557      1.36499     -10.9807 
0.00160522     0.128062      51.3402 
0.00163018      1.42056     -1.61354 
0.000532696      1.44679     -5.55297 
0.00127913     0.655134      12.3391 
0.000459330      1.42014    -0.806929 
0.00130929      1.07870      10.6849 
0.00174475     0.304631      66.8014 
0.00132378      1.42899     -6.42875 
0.00252814      1.74734      5.25380 
0.000445679      1.10653     -6.22583 
0.00123314     0.940000      0.00000 
0.00126518      1.36894     -11.8024 
0.000670509     0.141421      45.0000 
0.00571465     0.680294      24.3045 
0.00405799     0.316228      71.5651 
0.00112710      1.05906      10.8855 
0.00113410      1.38852     -11.6336 
0.00499178      1.76726      5.19443 
0.000382228      1.12872     -7.12502 
0.00299997     0.181108      173.660 
0.00106157     0.710211      9.72758 
0.000794584      1.46670     -5.47737 
0.000365458     0.481664     -4.76364 
 0.0100706     0.295296     -151.699 
0.000699557      1.44886     -6.34019 
0.00102604     0.716938     -22.9887 
0.000956963     0.900222      1.27303 
0.000690676     0.116619      59.0362 
0.00101923      1.40812     -11.4695 
0.000671121     0.920000      0.00000 
0.000335042      1.08259      11.7251 
0.000331220      1.10309     -22.3801 
0.000948413      1.37928      16.8584 
0.00143294      1.14856     -7.00127 
0.00172251      1.46874     -6.25403 
0.000920484      1.42773     -11.3099 
0.00192005     0.690507      10.0080 
0.000312013      1.46123     -2.35330 
0.00138131      1.12161     -21.9911 
0.000303694     0.244131      145.008 
0.00561016      1.38521      17.6501 
0.00318695     0.180000      180.000 
0.00161854     0.272029      143.973 
0.000287097      1.44734     -11.1547 
0.000751587     0.735391     -22.3801 
0.000542974      1.41223     -12.2648 
0.00225089     0.880227      1.30195 
0.000516931      1.78718      5.13638 
0.000513982      1.46697     -11.0035 
0.00138720     0.329848      75.9638 
0.000259626     0.484149     -38.2902 
0.000256759     0.765506     -19.8552 
0.00133961     0.566392     -42.1376 
0.000249533      1.11086     -23.3340 
0.000248059      1.48862     -6.17017 
0.000247148      1.82888      5.64825 
0.000242917      1.48661     -10.8564 
0.00224902      1.48661     -5.40379 
0.000455064      1.11893     -24.2744 
0.000237108      1.94833      5.30093 
0.00389632     0.288444      146.310 
0.000653340      1.30507     -15.1011 
0.000232662      1.50266     -9.96380 
0.00123172     0.635610      12.7244 
0.000228862      1.96825      5.24714 
0.000224089      1.40057     -1.63658 
0.000439416      1.98816      5.19443 
0.000219827      1.52237     -9.83356 
0.000631805      1.74562      4.60010 
0.00375140     0.688767      25.8210 
0.00138202     0.753923     -21.8014 
0.000417371      1.50625     -10.7131 
0.00128870      1.12730     -25.2011 
0.000610522      2.00808      5.14276 
0.000725228      1.36015    -0.842524 
0.000362312     0.670820      10.3048 
0.000728665      1.52591     -10.5735 
0.000377132      1.72743      5.31455 
0.00322179     0.200000      180.000 
0.000738872      2.02800      5.09211 
0.000371530     0.345254      79.9920 
0.00231419     0.580000     -43.6028 
0.000602857      1.25284     -16.6992 
0.000681244      1.14630     -6.00901 
0.000257128     0.181108     -173.660 
0.00139882     0.616117      13.1340 
0.000175436      1.72569      4.65335 
0.000593796     0.384187      38.6598 
0.00125641      2.04793      5.04245 
0.00119469      1.70751      5.37671 
0.00115995     0.364966      80.5377 
0.000165907      1.32439     -14.8757 
0.000612814      1.54557     -10.4375 
0.00208331      1.11803     -26.5651 
0.000260895      1.11571      14.5345 
0.000559684      1.50479     -4.57392 
0.000814535     0.670820      26.5651 
0.00168032      1.39140      18.4350 
0.00100713      1.56525     -10.3048 
0.00108573      1.70317      9.46232 
0.000270663     0.772528     -21.2505 
0.000976762      2.06785      4.99374 
-0.00254925     0.384708     -98.9726 
0.00137559     0.184391     -167.471 
0.000128504      1.34015    -0.855097 
-0.00538984     0.382099     -96.0090 
0.000965883      1.68760      5.44033 
0.00137881     0.316228      145.305 
0.000810454      1.48486     -4.63546 
0.00117489     0.596657      13.5704 
0.00161900     0.384708      81.0274 
0.00130289      1.16619     -5.90614 
0.000733826      1.27201     -16.4404 
0.000379356     0.439090      30.0686 
0.000859798      1.54932     -11.1649 
0.000108421     0.565685     -45.0000 
0.000698023     0.593970     -45.0000 
0.000574698      2.08777      4.94597 
0.000382726     0.412311     -39.0939 
0.000360328      1.48337     -3.86546 
0.00125491     0.577235      14.0362 
9.24009e-05      1.10164      15.8025 
0.00113365     0.580000     -46.3972 
0.000683898      1.66769      5.50548 
0.000469722     0.697711      27.2996 
0.000473713      2.10609      4.35698 
0.00117351      1.56895     -11.0235 
0.00162420     0.721110     -56.3099 
0.000183874      1.36308     -14.4440 
-0.00547892     0.141421     -8.13010 
0.000572891      1.70658      10.1247 
0.000298325     0.200998      174.289 
0.00196736     0.305287      148.392 
0.000941517      2.42074     -1.42027 
0.000484615     0.868332      28.9264 
0.000511998      1.38246     -14.2373 
0.00266965     0.524976      17.7447 
0.00106838     0.223607      169.695 
0.000283870      1.10941     -27.9510 
0.00110483     0.566392     -47.8624 
0.000983841      1.72627      10.0080 
0.000391527      2.10770      4.89909 
0.000986256     0.837616      33.3106 
0.000356747      1.92634      12.5933 
0.000176927     0.921954     -40.6013 
0.000272999      1.29120     -16.1892 
0.000263877     0.885889      28.3008 
0.000135065      1.20814     -6.65443 
5.93663e-05      2.44074     -1.40863 
0.000375931      1.64779      5.57220 
-0.00331793     0.121655     -9.46232 
0.00140664      2.44131     -1.87788 
0.000528795      1.22801     -6.54629 
0.000977758     0.161245     -60.2551 
0.000575070      2.12603      4.31603 
0.000572299     0.252982      18.4349 
0.000206943      1.58493     -10.1755 
0.00139073     0.228035      164.745 
0.000549038     0.134164     -153.435 
5.23984e-05      1.90683      12.7244 
0.000396720      1.91133      13.3092 
0.00211360     0.505964      18.4349 
4.81842e-05      1.40911     -6.51980 
0.000646694     0.553173     -49.3987 
-0.000186957     0.388330     -101.889 
-0.000584476      2.67918      12.0649 
9.18121e-05      1.60462     -10.0493 
-0.00141828     0.402492     -116.565 
-0.00163461     0.310483      104.931 
0.000234404      1.40186     -14.0362 
0.000788691     0.295296      151.699 
0.000990918     0.116619     -149.036 
-0.000234173     0.400500     -92.8624 
0.000344367     0.305287     -121.608 
4.14684e-05     0.295296     -118.301 
0.000435639     0.291204     -105.945 
0.000116369     0.937230     -39.8056 
0.000346513     0.493964     -111.371 
-0.000530889     0.184391      77.4712 
0.000226849     0.407922      78.6901 
3.85207e-05      1.58858     -10.8855 
7.53941e-05     0.134164     -63.4349 
3.83983e-05     0.252982      161.565 
7.59576e-05     0.519230      15.6422 
0.000223069     0.500000      16.2602 
0.000147730     0.145602     -164.055 
3.66050e-05      1.89188      13.4486 
