! Center RA: 11 59 31.83391,  Dec: +29 14 43.82678 (2000.0)
! Tentative model.
! Flux (Jy) Radius (mas)  Theta (deg)  Major FWHM (mas)  Axial ratio   Phi (deg) T \
! Freq (Hz)     SpecIndex
0.00845538      0.00000      0.00000 
0.00276560    0.0400000      180.000 
0.00707927    0.0565685      135.000 
0.00146279    0.0800000     -90.0000 
0.00195283     0.120000     -90.0000 
-0.000610623     0.417612     -16.6992 
0.000295278    0.0400000      90.0000 
0.000574431     0.256125      51.3402 
0.000277965     0.288444      56.3099 
-0.000239472     0.407922     -11.3099 
-0.000970587     0.620967      14.9314 
0.000504483      1.13842     -18.4349 
0.000533393      1.30231      10.6197 
0.000672719      1.17644     -17.8189 
-0.000128114     0.923472      4.96974 
-0.000695833      1.20266      3.81407 
-9.56535e-05     0.379473     -18.4349 
-0.000227204     0.368782     -12.5288 
-0.000439640     0.927793      7.43141 
-0.000135860      1.65747      19.7468 
-0.000699792     0.481664      94.7636 
-0.000583882      1.55589      17.9691 
5.71536e-05      1.24193      14.9314 
0.000210965     0.312410      50.1944 
0.000744923      1.33507      8.61565 
-0.000396565      1.67141      21.0375 
0.000313320      1.21458      17.2415 
-2.13734e-05     0.883629      5.19443 
-0.000506627      1.05224     -8.74616 
-0.000390915      1.24258      3.69139 
0.000383625     0.656049      37.5686 
-0.000221973     0.329848     -14.0362 
-0.000395709     0.304631      156.801 
-0.000457007      1.64049      1.39718 
-0.000310733     0.452548     -45.0000 
0.000135612     0.282843      45.0000 
0.000313669      1.55332      11.8887 
-0.000281072     0.948262      27.6460 
0.000267433      1.37753      25.8210 
0.000279395     0.126491     -71.5651 
1.66262e-05      1.17644      17.8189 
-0.000333601     0.291204     -15.9454 
0.000193064     0.961665      16.9275 
3.05129e-05     0.481664      4.76364 
0.000300351     0.521536      4.39871 
9.36380e-05      1.28250     -3.57633 
-0.000158037      1.54402      16.5571 
2.73453e-05      1.45382      7.90716 
0.000143405      1.04000      0.00000 
-7.79306e-05     0.447214     -10.3048 
7.69089e-05      1.40911      6.51980 
7.66412e-05     0.974064      19.1790 
