! Center RA: 07 21 53.44848,  Dec: +71 20 36.36340 (2000.0)
! Tentative model.
! Flux (Jy) Radius (mas)  Theta (deg)  Major FWHM (mas)  Axial ratio   Phi (deg) T \
! Freq (Hz)     SpecIndex
-0.0191436      0.00000      0.00000 
-0.0118480    0.0400000      180.000 
-0.00153489    0.0400000     -90.0000 
-0.00410201    0.0565685     -45.0000 
0.000925556     0.481664      41.6335 
0.000254710     0.735391      67.6199 
0.00241353     0.203961      11.3099 
0.00116834     0.772528      68.7495 
-0.00243340      1.78572      15.5928 
0.00118217      2.47419      34.4608 
-0.00138736    0.0894427      153.435 
0.00116153      2.52602      10.9541 
-0.000446637     0.494773      14.0362 
0.000427203     0.894427      63.4349 
-0.000917827     0.809938      20.2249 
0.000198336      2.29085      12.0948 
0.000352845     0.452548      45.0000 
-0.00121248      2.74489      43.2285 
0.000851197      3.03710      40.1920 
0.00111383      1.75454      24.2277 
0.000685748      2.88444      33.6901 
-0.000457721     0.447214      10.3048 
0.00155352      1.95059      15.4612 
-0.00102121     0.557136      21.0375 
-0.000138573      1.40228      3.27049 
0.00127535     0.456070      37.8750 
-0.000214997      1.12641     -6.11550 
-0.000802019      2.22639      17.7839 
0.000331394     0.624820      39.8056 
0.000176824      2.25175      12.3080 
-0.000707036      1.27812      20.1363 
-0.000264049      1.36059      1.68468 
-0.000346499      1.44941      27.9795 
0.00107352      1.58240      20.7256 
0.000564657      2.80913      19.9831 
-0.000524861      1.43108      26.5651 
-0.000440000     0.641249      3.57633 
-0.000256931      1.35823      13.6270 
-0.000925667      2.66593      27.7185 
0.000539960      2.25460      25.2011 
0.000182835      2.47935      17.8503 
0.00107574     0.144222     -146.310 
0.000450219      2.44393      21.1048 
0.000404187     0.877268      65.7723 
-0.000569014      1.32061     -1.73570 
-0.000313053     0.912140      52.1250 
-1.78048e-05      2.23893      18.7586 
-0.000605289      2.27684      18.4349 
0.000246245      2.40666      15.4222 
-3.42010e-05      1.64000      12.6804 
-0.000256054      2.29957      40.0608 
0.000379887      1.01980      25.5600 
0.000347564     0.243310      9.46232 
-0.000131876      1.63169      11.3099 
0.000117018      2.51873      10.0607 
-0.000128634     0.832346      54.7824 
-0.000213163      2.63454      30.0686 
0.000184241      1.48216     -3.09406 
0.000126643     0.432666      33.6901 
0.000166203     0.850412      41.1859 
-0.000151672     0.954149      33.0239 
0.000123202      1.56205      2.93567 
-6.80168e-05      2.84703      24.0442 
-9.48228e-05     0.954149      56.9761 
2.63109e-05      1.71814      24.7751 
