! Center RA: 15 12 50.53293,  Dec: -09 05 59.82981 (2000.0)
! Tentative model.
! Flux (Jy) Radius (mas)  Theta (deg)  Major FWHM (mas)  Axial ratio   Phi (deg) T \
! Freq (Hz)     SpecIndex
-0.0186374    0.0565685      135.000 
-0.00147357    0.0400000      180.000 
-0.00519654    0.0800000      180.000 
-0.00199695      4.77678     -27.4234 
0.00301888      3.32024     -31.2005 
0.00198164      5.64057     -36.0572 
-0.00187768      1.20930     -34.2157 
-0.000783510      2.16518     -25.1448 
-0.000566604      3.14197     -21.6660 
0.000448361      5.66420     -36.3844 
-0.000374933      4.54964     -32.4326 
0.000650253      2.87360     -38.7844 
-0.000288168      2.07577     -25.0836 
-0.00117726      4.76000     -28.0725 
-0.000552078      1.92333     -45.0000 
6.11985e-05      2.03961     -11.3099 
-0.00101831      3.53565     -21.9218 
0.000733014      2.07885     -11.0937 
0.000435481      1.44278     -43.8767 
0.00117011      1.40000     -53.1301 
-0.000960729      4.88459     -31.6075 
0.000224990      1.99279     -10.4077 
-0.000779370      3.48368     -21.5571 
5.43356e-05      3.28609     -31.5618 
0.000966795      1.90704     -9.65989 
0.000241794      3.06438     -35.9724 
0.000307032      4.96339     -40.7515 
0.000555551      2.84253     -39.2894 
-0.000535197      1.22703     -19.0256 
0.00114674     0.758947     -18.4349 
0.000655720      2.43508     -42.3370 
-0.000517211      1.29800     -33.6901 
-0.000859293      3.73909     -34.5401 
0.000138921      3.20624     -33.2936 
-0.000820665      3.00613     -25.2011 
0.000219909      1.41421     -45.0000 
-0.000259861     0.200000     -53.1301 
0.000170664      1.82428     -15.2551 
-0.000549777      4.14922     -33.9965 
0.000600478      3.17289     -33.6901 
-0.000304134      3.44651     -21.8014 
-0.000504786      1.68760     -5.44033 
0.000439224      1.40911     -55.4077 
0.000153647      1.73666     -14.6764 
0.000442901     0.809938     -20.2249 
0.000228583      2.37453     -32.6192 
-0.000457265     0.178885     -63.4349 
0.000146370      1.38852     -48.5035 
0.000214414      1.96163     -16.5873 
-3.80587e-05      4.51593     -32.7047 
0.000347086      2.51873     -20.4495 
-7.11141e-05      1.26491     -34.6952 
7.29922e-05      2.38730     -31.2930 
0.000377229     0.425206     -48.8141 
-0.000275256      2.54244     -24.1455 
0.000340619      3.93080     -31.2637 
0.000301630      3.75681     -18.6279 
0.000335307      1.28561     -5.35582 
0.000201568      2.81169     -39.8056 
-3.52569e-05    0.0894427      153.435 
0.000200519      1.78572     -15.5928 
0.000199736      2.35321     -31.7989 
3.49499e-05     0.776660     -34.5085 
0.000232577      4.87311     -35.6470 
9.99076e-05      1.75727     -41.3086 
-0.000296843      3.71656     -34.0321 
-6.44122e-05      1.18929     -19.6538 
-3.20852e-05      3.76617     -22.4794 
3.20424e-05      1.36235     -49.7636 
3.18941e-05      2.37857     -42.2737 
-3.17091e-05      4.79266     -33.4248 
3.14598e-05      4.00500     -39.7323 
