! Center RA: 08 54 48.87493,  Dec: +20 06 30.64078 (2000.0)
! Established model.
! Flux (Jy) Radius (mas)  Theta (deg)  Major FWHM (mas)  Axial ratio   Phi (deg) T \
! Freq (Hz)     SpecIndex
   1.02777      0.00000      0.00000 
 0.0287467    0.0721110     -33.6901 
 0.0531250    0.0447214      153.435 
 0.0265021     0.100000     -36.8699 
 0.0880291     0.128062     -38.6598 
  0.188456    0.0721110      146.310 
  0.113114     0.396989     -49.0856 
  0.111493     0.156205     -39.8056 
 0.0931855     0.412311     -50.9061 
 0.0113446    0.0894427      153.435 
  0.141118     0.100000      143.130 
 0.0160140     0.400000     -53.1301 
 0.0167528     0.156205     -50.1944 
0.00765034     0.421900     -58.5704 
 0.0248242     0.172047     -54.4623 
 0.0245289     0.429418     -62.2415 
 0.0160295     0.395980     -45.0000 
 0.0317460     0.447214     -63.4349 
0.00459512     0.188680     -57.9946 
0.00429537     0.161245     -29.7449 
0.00810273     0.382099     -42.8789 
 0.0106807     0.196977     -66.0375 
 0.0146728     0.396989     -40.9144 
0.00854567     0.170880     -20.5560 
 0.0121195     0.465188     -64.5367 
0.00719798     0.189737     -71.5651 
 0.0174942     0.116619      149.036 
0.00608770     0.412311     -39.0939 
0.00791959     0.164924     -14.0362 
0.00675309     0.474131     -62.3540 
0.00189832     0.208806     -73.3008 
 0.0100963     0.607289     -72.7585 
0.00452819     0.203961     -78.6901 
0.00577377     0.428019     -37.4054 
0.00162763     0.594643     -70.3462 
0.00659438      1.38058     -91.6603 
0.00131918     0.511077     -59.4208 
0.00724295      1.22147     -87.1844 
0.00230812     0.549181     -56.8887 
0.00318839     0.200998     -84.2894 
0.00621173     0.760263     -88.4926 
0.00409502     0.432666     -33.6901 
0.00215948     0.961873     -86.4237 
0.00314754      1.40014     -90.8185 
0.00366898     0.184391     -12.5288 
0.00339054     0.310483     -104.931 
0.00539828     0.134164      153.435 
0.00100507     0.560357     -55.1755 
0.000942154      1.44347     -86.0275 
0.00432411     0.628013     -37.2348 
0.00253198     0.960833     -87.6141 
0.00708732     0.181108     -83.6598 
0.00235784      1.40057     -91.6366 
0.00149538     0.572014     -53.5308 
0.00307772      1.44499     -85.2364 
0.00375316     0.449444     -32.2756 
0.00556915      1.58114     -87.8253 
0.00363313      1.12641     -96.1155 
0.00574295     0.316228     -108.435 
0.000739219     0.588218     -54.6888 
0.00364966     0.145602      164.055 
0.00192235     0.898443     -73.1786 
0.00382841     0.181108     -6.34019 
0.000672770     0.941913     -93.6522 
0.00125811      1.58051     -88.5498 
0.00123922      1.11571     -75.4655 
0.000611400      1.40129     -92.4540 
0.000587239     0.943398     -94.8645 
0.00205988      1.44679     -84.4470 
0.00108225      1.53310     -97.4959 
0.00349261     0.624820     -39.8056 
0.00101686     0.945304     -96.0725 
0.000998732     0.604649     -55.7843 
0.000530723      1.12089     -74.4759 
0.00211737     0.904434     -71.9657 
0.00157256      1.38232     -93.3178 
0.00141996     0.760000     -90.0000 
0.000930799      1.12641     -73.4956 
0.00935840     0.164924      165.964 
0.00265973      1.53584     -98.2356 
0.00190419      1.12872     -97.1250 
0.00197547     0.616117     -76.8660 
0.000446326      1.31939     -104.036 
0.00171108     0.930591     -98.6525 
0.00597126     0.474131     -27.6460 
0.00222025      1.44886     -83.6598 
0.00213331      1.32439     -104.876 
0.000728671      1.13225     -72.5252 
0.00244613     0.335261     -107.354 
0.00538072     0.200998     -5.71059 
0.000657893      1.13842     -71.5651 
0.00199562     0.180000     -90.0000 
0.00176362      1.58202     -87.1014 
0.000760225     0.621289     -56.8215 
0.000924151      1.11803     -116.565 
0.000796838     0.644050     -36.1582 
0.000594048     0.891964     -70.3462 
0.00128120      1.77910     -81.5966 
0.00122199      1.55563     -98.1301 
0.000277484     0.407922     -78.6901 
0.00182610     0.947629     -97.2750 
0.000498490      1.14490     -70.6155 
0.00166013      1.12712     -117.474 
0.000907884      1.28062     -75.5297 
0.00178622     0.850882     -66.4477 
0.000828419     0.640312     -38.6598 
0.000241268     0.910824     -70.7693 
0.00189746      1.78213     -80.9605 
0.000411701      1.55048     -120.203 
-0.0108015     0.277849     -30.2564 
0.000613537     0.557853     -104.534 
0.000363312      1.15169     -69.6769 
0.000656788      1.92333     -106.928 
0.000519253      1.30507     -74.8989 
0.000720354      1.66721     -100.366 
0.000576645     0.601664     -74.5778 
0.000824460      1.56064     -120.838 
0.000424298     0.581378     -49.1849 
0.000322798      1.45121     -82.8750 
0.000177521      1.53883     -98.9726 
0.000173286     0.400500     -87.1376 
0.000296408      1.34893     -105.479 
0.000162554      1.53323     -120.579 
-0.000309645     0.300000     -143.130 
0.000156831     0.400000     -90.0000 
0.000504123     0.584123     -51.9530 
0.000966120      1.67547     -113.199 
0.000649536      1.51605     -98.3439 
-0.00350583     0.284253     -140.711 
0.00112002      1.31042     -74.0546 
0.000232110      1.16362     -65.6375 
0.000248728      1.40228     -93.2705 
0.00337867     0.456508     -28.8108 
0.000510961     0.400500     -92.8624 
0.000241753      1.58316     -86.3785 
0.000217175      1.10218     -78.4862 
-0.00139473     0.784092     -37.7468 
0.000118922     0.657875     -109.537 
-0.00159644     0.134164      63.4349 
0.000115361     0.545894     -8.42697 
0.000501789     0.664831     -111.161 
0.00184904     0.203961     -11.3099 
0.000191014      1.43694     -81.1932 
0.000297138     0.563205     -6.11550 
-0.00141248     0.250599      151.390 
9.88301e-05      1.35204     -119.219 
0.000189791      1.49345     -97.6961 
0.000273979      1.95028     -95.8860 
9.71531e-05     0.500000     -106.260 
0.000368567     0.594643     -47.7263 
-0.000711174     0.772010     -36.5730 
0.000181027     0.286356     -102.095 
9.00829e-05     0.494773     -104.036 
0.000172349      1.96367     -86.4965 
-8.68219e-05      1.55332     -78.1113 
8.64691e-05      1.66373     -99.6888 
0.000171439     0.608276     -43.6678 
-8.67677e-05     0.295296     -28.3008 
-8.46653e-05     0.733485     -64.1336 
8.51966e-05     0.439090     -30.0686 
-8.39215e-05      1.53805     -77.2288 
