! Center RA: 15 12 50.53293,  Dec: -09 05 59.82981 (2000.0)
! Tentative model.
! Flux (Jy) Radius (mas)  Theta (deg)  Major FWHM (mas)  Axial ratio   Phi (deg) T \
! Freq (Hz)     SpecIndex
-0.0150315    0.0565685      135.000 
-0.00528226    0.0400000      180.000 
-0.00373130      0.00000      0.00000 
-0.00275766      4.81232     -27.2040 
-0.00266255    0.0894427      153.435 
-0.000847211      3.06229     -23.8865 
0.000994246      5.02426     -40.1560 
0.000826381      1.47513     -40.6013 
-0.00102853      2.32723     -24.3625 
-0.00126073      4.79416     -26.7788 
-0.000781151      4.85057     -31.8551 
0.000869202      5.02935     -39.5138 
0.000455629      5.57609     -36.5411 
-0.000448799      4.88459     -31.6075 
0.000987855      3.35452     -30.8466 
0.00134440      1.50147     -41.7603 
0.000497736     0.698570     -13.2405 
-0.000247831      3.09890     -23.5870 
0.00114394     0.659697     -14.0362 
0.000610846     0.425206     -48.8141 
0.000116076      5.60828     -36.2978 
-0.000481203      3.30551     -21.2864 
0.000227895      3.06438     -35.9724 
0.000661772      4.01995     -31.1593 
0.00100743      5.48802     -36.7029 
0.000734749      3.03209     -36.4164 
-0.00117224      3.11512     -24.2613 
0.000218891      5.64057     -36.0572 
-0.000816082      1.77674     -31.1850 
0.00108252      2.64515     -20.3532 
0.000282721      1.48809     -53.7462 
-0.000428645      5.13654     -33.5663 
-0.000282983      4.69655     -35.9915 
-0.000480901      3.34281     -21.0375 
-0.000426623      1.14403     -36.4692 
0.000426662      2.48805     -36.5014 
8.58769e-05      3.00000     -36.8699 
-0.000409543      2.36373     -23.9625 
0.000598587     0.754718     -32.0054 
0.000482669      1.46479     -55.0080 
0.000445226      3.38892     -30.4998 
0.000658993      2.09571     -13.2405 
-0.000198515      3.30938     -26.5651 
-0.000542614      3.68521     -27.1213 
0.000213490     0.747262     -15.5241 
3.88197e-05      2.87360     -38.7844 
-0.000175553      3.52091     -21.3179 
-0.000312803      1.20000     -36.8699 
0.000242770      1.16619     -5.90614 
-0.000274954      4.75849     -26.9958 
0.000108532      2.84253     -39.2894 
-0.000240109      3.29169     -25.9423 
-0.000170290      5.16991     -33.3212 
0.000169708      3.80841     -36.0274 
-0.000169770      4.90567     -32.0054 
6.93535e-05     0.572713     -12.0948 
0.000131755      2.81169     -39.8056 
0.000131553      3.36880     -29.9136 
0.000130512     0.533667     -12.9946 
9.66085e-05      1.47187     -42.7974 
-3.25723e-05      4.87180     -32.2547 
-3.20006e-05      4.66425     -36.2803 
3.16568e-05      2.55812     -26.9657 
