! Center RA: 08 54 48.87493,  Dec: +20 06 30.64078 (2000.0)
! Tentative model.
! Flux (Jy) Radius (mas)  Theta (deg)  Major FWHM (mas)  Axial ratio   Phi (deg) T \
! Freq (Hz)     SpecIndex
-0.0382039     0.164924     -75.9638 
-0.0177958     0.178885     -63.4349 
-0.00770985     0.203961     -78.6901 
-0.00642210      1.10635     -102.529 
-0.00182539     0.594643     -109.654 
-0.00209358      1.09836     -100.491 
-0.00194050     0.632456     -108.435 
-0.000540207     0.609262     -113.199 
-0.00184020     0.646220     -111.801 
0.00414936     0.282843      98.1301 
-0.000111362      1.60449     -94.2892 
-0.00216760      1.64195     -92.7927 
-0.00161964     0.169706     -45.0000 
-0.00130676      3.17918     -111.400 
0.000896979     0.243310      99.4623 
-0.000985143     0.144222     -56.3099 
-6.23226e-05     0.976524     -145.008 
-0.000118496      1.00955     -146.310 
-5.90110e-05      1.09836     -56.8887 
-0.000431092      1.03846      164.358 
-5.77182e-05     0.651153     -100.620 
-0.000163315      1.04307     -147.529 
-0.000156391      1.12071     -55.1755 
-0.000311288     0.644981     -97.1250 
0.00209063     0.252982      108.435 
-0.000145818      1.07703     -148.671 
-0.00113278      1.00000      163.740 
-0.000702221      9.84236     -118.127 
0.00130755     0.751532     -25.2011 
-0.000661074      2.92438     -93.1364 
-9.31480e-05     0.641249     -93.5763 
-9.09095e-05      1.14403     -53.5308 
-0.000251582      2.96432     -93.0941 
-0.000316607      10.4938     -119.203 
-8.92210e-05      2.18833     -108.104 
-0.000220154     0.681175     -86.6335 
-0.000130089      1.11140     -149.744 
-0.000702561     0.178885     -26.5651 
0.000203800      1.36821      142.125 
-0.000471053      3.12410     -140.194 
-4.23579e-05      1.22442     -51.6325 
-0.000353765     0.684690     -83.2902 
-8.17562e-05      2.20109     -109.093 
-0.000193898      7.95638     -132.351 
0.000149277     0.824621      50.9061 
-7.82150e-05      1.24964     -50.1944 
-0.000114838      1.14612     -150.751 
-0.000248429      2.17697     -110.433 
0.000432595      7.40594     -116.288 
0.000681442      1.59248      154.722 
-0.000196936      1.64438     -94.1849 
0.000217354      7.96603     -103.059 
-0.00150735     0.215407     -21.8014 
-0.000224240      3.35452     -98.2267 
-0.000341667     0.690507     -79.9920 
-0.000493786      8.01289     -132.370 
-3.58597e-05      1.27562     -48.8141 
0.000537411      2.45569     -167.775 
-0.000102478      1.18119     -151.699 
0.00114496     0.215407      111.801 
3.45993e-05      5.33082     -116.757 
-0.000400124      6.18760     -106.912 
0.000890329     0.715542     -26.5651 
0.000273108      5.31293     -116.372 
-3.37309e-05      1.30231     -47.4896 
0.000433847      7.95709     -102.779 
0.000314864     0.850412      48.8141 
0.000280149      5.61726     -117.112 
-0.000143312      10.4743     -119.012 
-6.19774e-05      1.21655     -152.592 
-0.000485341     0.698570     -76.7595 
0.000120279      12.1284     -116.650 
-0.000171501      2.19126     -111.413 
-0.000277749      9.78824     -118.031 
-2.97742e-05      1.32966     -46.2189 
-0.000247284     0.840952      92.7263 
5.59677e-05      7.37010     -116.426 
-2.92921e-05      1.25220     -153.435 
0.000189529      4.44072     -107.292 
0.000238746      12.1464     -116.396 
-5.46977e-05      1.27122     -155.854 
-0.000105473      8.60930     -124.207 
-0.000103594      3.36048     -98.9017 
0.000128573      7.38832     -116.010 
-0.000130470      6.19935     -107.266 
0.000103148      4.25883     -118.009 
-5.14117e-05      1.64779     -95.5722 
-0.000126803      6.27936     -134.484 
-5.12125e-05      10.5407     -114.912 
-5.13831e-05      1.30782     -156.571 
-0.000125945      6.72964     -111.991 
-7.59794e-05     0.961665      163.072 
-2.57073e-05      2.88444     -123.690 
-2.56725e-05      10.0161     -113.289 
-5.00504e-05      2.20617     -112.380 
-4.99879e-05      10.6769     -109.250 
-7.50914e-05     0.708802     -73.6105 
7.42445e-05     0.680000     -28.0725 
-2.48284e-05      11.4728     -124.632 
