! Center RA: 22 32 36.40891,  Dec: +11 43 50.90394 (2000.0)
! Established model.
! Flux (Jy) Radius (mas)  Theta (deg)  Major FWHM (mas)  Axial ratio   Phi (deg) T \
! Freq (Hz)     SpecIndex
   3.62451      0.00000      0.00000 
 0.0959399    0.0125000      90.0000 
0.00150720    0.0883883      81.8699 
0.00149282    0.0750000     -90.0000 
0.00147900     0.125623      84.2894 
0.00146639     0.162500     -90.0000 
0.00145434     0.175446      85.9144 
0.00144330     0.200000     -90.0000 
0.00143229     0.200390      86.4237 
0.00142255     0.237500     -90.0000 
0.00141265     0.225347      86.8202 
0.00140381     0.262500     -90.0000 
0.00139489     0.250312      87.1376 
0.00138682     0.287500     -90.0000 
0.00137875     0.275284      87.3974 
0.00137133     0.312500     -90.0000 
0.00136403     0.287772      87.5104 
0.00135693     0.325000     -90.0000 
0.00135023     0.300260      87.6141 
0.00134353     0.337731     -92.1211 
0.00133741     0.312750      87.7094 
 0.0979697     0.350223     -92.0454 
0.00132531     0.325240      87.7974 
0.00131358     0.337731      87.8789 
 0.0396165     0.350223      87.9546 
 0.0427482     0.350892      85.9144 
-0.0238881     0.319423      149.421 
0.00934450     0.350892     -94.0856 
-0.0203725     0.302335     -29.7449 
-0.0145910     0.313249      151.390 
-0.0182277     0.307459      153.435 
-0.0174241     0.296332     -27.6460 
 0.0386396     0.350000      90.0000 
-0.0149279     0.302076      155.556 
-0.0169918     0.290743     -25.4633 
 0.0182761     0.350000     -90.0000 
-0.00410618     0.297122      157.751 
-0.00204315     0.285591     -23.1986 
