! Center RA: 16 42 58.80997,  Dec: +39 48 36.99402 (2000.0)
! Established model.
! Flux (Jy) Radius (mas)  Theta (deg)  Major FWHM (mas)  Axial ratio   Phi (deg) T \
! Freq (Hz)     SpecIndex
   1.83702      0.00000      0.00000 
 0.0414876    0.0125000      0.00000 
 0.0202670    0.0176777      45.0000 
 0.0190644    0.0125000     -90.0000 
0.00198104    0.0250000     -90.0000 
0.00196143    0.0279509      63.4349 
0.000974139      2.52550     -91.1344 
 0.0101121      2.53827     -91.4109 
0.00285638    0.0395285      71.5651 
0.00277414    0.0515388      75.9638 
0.00269494    0.0637377      78.6901 
0.000881228    0.0760345      80.5377 
0.00344380     0.127475      78.6901 
 0.0113920      2.55077     -91.4040 
0.00331894     0.139754      79.6952 
0.000810803     0.152069      80.5377 
 0.0124116     0.482992     -100.437 
0.00159794     0.164412      81.2538 
0.000787764     0.215783      79.9920 
0.00232221     0.228104      80.5377 
0.00226198     0.240442      81.0274 
0.00959337      2.56326     -91.3972 
0.00147598     0.252797      81.4692 
0.00145153     0.291815      80.1342 
0.00283273     0.304138      80.5377 
0.00274336     0.316475      80.9097 
0.00395258     0.355537      79.8753 
 0.0356894     0.480885     -98.9726 
0.00559196     0.367848      80.2176 
0.00984190      2.57576     -91.3904 
0.00117662     0.380173      80.5377 
0.00403059     0.406971      79.3803 
 0.0108437     0.419263      79.6952 
0.00144056     0.446164      78.6901 
0.00393306      2.58825     -91.3837 
 0.0124246     0.431567      79.9920 
0.000440051     0.392508      80.8377 
0.00319070      2.60108     -91.6523 
0.00145367      2.61358     -91.6444 
0.000371988     0.404853      81.1193 
0.00482106     0.443882      80.2724 
0.000707824      2.93364     -94.3987 
0.000352653     0.365932      82.1467 
0.00102996      2.95955     -94.6029 
0.000991865      2.97200     -94.5835 
0.000328257      2.56299     -91.1178 
