! Center RA: 12 56 11.16657,  Dec: -05 47 21.52481 (2000.0)
! Established model.
! Flux (Jy) Radius (mas)  Theta (deg)  Major FWHM (mas)  Axial ratio   Phi (deg) T \
! Freq (Hz)     SpecIndex
   7.61227      0.00000      0.00000 
  0.241605    0.0200000     -90.0000 
  0.183241    0.0282843     -135.000 
 0.0464235    0.0200000      0.00000 
 0.0653309    0.0721110     -146.310 
 0.0641401    0.0447214      26.5651 
 0.0205319    0.0848528     -135.000 
  0.113575    0.0632456      18.4349 
  0.112624     0.100000     -143.130 
 0.0172795    0.0824621      14.0362 
  0.154358     0.116619     -149.036 
  0.202538    0.0721110      33.6901 
 0.0882350     0.113137     -135.000 
 0.0130068     0.101980      11.3099 
 0.0770251     0.121655      9.46232 
 0.0231659     0.200998     -174.289 
 0.0613584     0.220907     -174.806 
 0.0214172     0.100000     -126.870 
 0.0210575    0.0600000      90.0000 
 0.0776562     0.107703     -111.801 
 0.0833806    0.0894427      116.565 
  0.181040     0.382099     -137.121 
 0.0781463     0.141421      8.13010 
 0.0677371     0.860233     -144.462 
 0.0958651     0.240832     -175.236 
 0.0803221     0.161245      7.12502 
 0.0841873     0.876584     -145.222 
0.00690326     0.848764     -145.561 
 0.0684925     0.260768     -175.601 
 0.0705807     0.672012     -143.471 
  0.143948     0.200000      0.00000 
 0.0537800     0.116619      120.964 
 0.0573397     0.384187     -141.340 
 0.0597257     0.893085     -145.954 
 0.0865403     0.280000      180.000 
  0.100366     0.121655     -99.4623 
 0.0496790     0.656049     -142.431 
 0.0273563     0.126491     -108.435 
 0.0147330     0.909725     -146.659 
 0.0271878     0.531413     -160.201 
0.00997390     0.512640     -159.444 
 0.0161448      1.01607     -143.807 
 0.0131644     0.898888     -147.724 
 0.0116692     0.915860     -148.392 
 0.0530411      1.02801     -142.907 
 0.0127109     0.644050     -143.842 
 0.0129730     0.922822     -150.101 
0.00958206     0.640312     -141.340 
 0.0137654     0.367696     -135.000 
 0.0625510     0.544059     -162.897 
 0.0279820     0.940213     -150.709 
 0.0203176     0.628013     -142.765 
 0.0317160      4.51314     -133.384 
 0.0198990     0.220000      0.00000 
 0.0101757     0.930591     -151.783 
 0.0193842     0.353836     -132.709 
 0.0250327      1.31605     -143.653 
 0.0413940     0.948262     -152.354 
0.00784339     0.624820     -140.194 
 0.0101459      4.52628     -133.926 
 0.0175358      1.94833     -148.431 
0.00637328      1.02450     -141.340 
0.00645023     0.612209     -141.633 
0.00581204      4.59639     -135.529 
0.00915985      1.17184     -152.560 
 0.0232236      4.32759     -135.374 
 0.0250775      1.59261     -144.713 
0.00668643     0.609590     -138.991 
0.00325991     0.340588     -130.236 
 0.0318167      1.30000     -143.130 
0.00783521      4.75209     -134.318 
0.00296358     0.957706     -151.294 
0.00260231      1.16362     -151.232 
0.00965578     0.596657     -140.440 
0.00809912      1.18119     -151.699 
0.00479411      4.54141     -133.394 
0.00581252      1.91437     -147.804 
 0.0231627     0.325576     -132.510 
 0.0127736      4.24867     -131.947 
0.00114598      1.04403     -143.569 
0.00111295      4.54070     -133.751 
 0.0113139      4.62502     -135.876 
 0.0122363      4.76609     -134.490 
 0.0154340      1.93132     -148.120 
0.00104673     0.912140     -127.875 
0.00846929     0.900000     -126.870 
 0.0102665     0.101980     -101.310 
0.00257681      1.59762     -145.713 
 0.0158959     0.538517     -111.801 
 0.0108419      4.41728     -129.673 
0.00846231     0.260000      180.000 
0.00430404     0.113137      135.000 
0.00814732      4.26357     -131.767 
0.00631272     0.975295     -151.858 
0.00268826      4.63940     -136.048 
0.00206475      1.19883     -152.152 
 0.0222104      3.41321     -131.912 
0.00212799      2.14140     -147.200 
 0.0220938      2.96439     -144.058 
0.00363432      4.78013     -134.661 
0.00360255      2.15824     -147.488 
0.000667239     0.260768      175.601 
0.00697560      2.29242     -144.230 
 0.0120847      4.40454     -129.472 
-0.0473443     0.197990      45.0000 
0.00857363     0.100000      126.870 
0.00214760     0.904434     -125.096 
0.00308407      1.18962     -153.004 
0.00340318     0.581378     -139.185 
0.00168008      1.97231     -149.534 
0.00384973      1.28406     -142.595 
0.00333868      1.65614     -137.447 
0.00395572      1.92852     -139.205 
0.00312975     0.312410     -129.806 
0.00959453      4.86695     -136.665 
0.00702797      3.93243     -133.764 
0.000507030     0.564624     -112.932 
0.00145681      1.74471     -151.966 
0.00741581      2.27622     -143.936 
0.00439152     0.617414     -114.905 
0.00708839      4.64022     -130.280 
0.00360575      4.34184     -135.560 
0.00564622      2.29268     -128.270 
0.000456071      2.17513     -147.771 
0.00547851     0.992975     -152.403 
0.00205421      2.01445     -150.890 
0.00419569      1.77099     -153.146 
0.00121287      2.96007     -143.517 
0.00509417      3.38053     -144.147 
0.00444946      1.91343     -138.814 
0.00503826     0.531413     -109.799 
-0.0432807     0.244131     -55.0080 
0.00355606      3.77831     -145.132 
0.00444366      3.93192     -134.176 
0.00580242      4.39509     -139.059 
0.000386133     0.893085     -124.046 
0.00349892      1.16516     -129.428 
0.000739290      2.67619     -143.815 
0.00563623      4.39186     -129.271 
-0.0131520     0.560357     -177.955 
0.00593356      2.04000     -151.928 
0.000674815      4.62554     -136.226 
0.000348352      1.64146     -136.975 
0.00247338      2.41537     -154.496 
0.00685020      1.16276     -153.435 
0.00190616      2.68805     -143.471 
0.00157031     0.300000     -126.870 
0.00761662    0.0824621      104.036 
0.00242220      4.16077     -127.972 
0.00138704      3.62353     -140.599 
0.00288613      2.29617     -127.569 
0.00174133      4.38443     -135.739 
0.00506088      1.15256     -128.660 
0.00286489     0.524976     -107.745 
0.00238114      1.89842     -138.417 
0.000297562     0.644050     -115.769 
0.00220526      2.99827     -134.459 
0.00260386      3.76191     -144.958 
0.00531688     0.635610     -114.146 
0.00404172      2.24758     -119.302 
0.00403123      2.70415     -143.723 
0.000282353      1.65517     -136.469 
0.000281520      4.61112     -136.054 
0.00279143      3.39676     -144.345 
0.000551054     0.288444     -123.690 
0.00574095      4.88152     -136.826 
-0.00731808      1.06320     -163.610 
-0.00945817      4.04712     -132.997 
0.000274478     0.688767     -154.179 
0.00332340      4.42705     -135.915 
0.00844992      2.40682     -154.926 
0.00275182      4.14849     -127.754 
0.000512559     0.272029     -126.027 
0.00355571     0.706824     -154.885 
0.00762237      3.05470     -135.000 
-0.00287501      1.29877     -170.248 
 0.0119917     0.101980      101.310 
0.000243096      3.26497     -139.970 
0.00906841     0.557853     -165.466 
0.00105386     0.260768     -122.471 
 0.0144429     0.145602     -105.945 
0.000392285      1.64073     -135.988 
0.00434629      3.45398     -148.979 
0.00446712      4.39718     -139.427 
-0.00227498      4.46865     -144.105 
0.00179659      1.75317     -152.850 
0.00215786     0.240000      0.00000 
0.00170791      1.88351     -138.013 
0.00331699      1.14018     -127.875 
-0.00717000     0.373631     -105.524 
0.000424375      4.41271     -135.735 
0.00128710      2.60768     -131.269 
-0.00779923     0.540370     -177.879 
0.000205050      2.56445     -144.203 
-0.00364119      3.66284     -135.221 
0.00358059      4.44099     -135.730 
0.00194444     0.519230     -105.642 
0.000371773      3.27787     -139.702 
0.00167716      4.37639     -129.437 
0.00231039      2.02237     -151.661 
0.00279668     0.966023     -152.904 
0.00178327     0.250599     -118.610 
-0.00209928      4.45246     -143.954 
-0.00306226      1.18271     -161.259 
0.000832527      3.41303     -144.540 
0.000629787     0.992975     -108.800 
0.00122667      2.30512     -128.660 
0.000490122      4.84235     -140.194 
0.000635287     0.986712     -107.700 
-0.00294403      1.92416     -133.315 
0.000168647      4.88250     -137.158 
0.000468181      4.69659     -139.663 
0.00157459      1.12801     -127.073 
-0.00184507      5.00703     -135.971 
0.00122541      1.99138     -123.530 
0.000161425      3.66715     -140.755 
0.000610981     0.724983     -155.556 
0.000920321      1.86869     -137.603 
-0.000914406      1.04403     -163.301 
-0.00164585      3.18352     -133.218 
-0.00104119      1.38809     -126.209 
0.000155220      3.68266     -140.951 
0.000730626      1.15603     -127.266 
0.000884922      4.42669     -135.549 
0.000736408     0.494773     -104.036 
0.000589932      3.72634     -141.100 
0.000149959      2.52032     -144.039 
0.000145353      1.62641     -135.498 
0.000287548      1.86762     -136.736 
0.000706539      2.31767     -129.046 
0.000142781      2.04841     -152.684 
-0.000141521      1.06902     -162.582 
0.000141493      4.99231     -142.487 
0.000141085      3.74192     -141.292 
0.000140895     0.220907      5.19443 
0.00693653      2.04362     -159.969 
-0.00511377     0.349285      13.2405 
0.000424708      2.46138     -136.317 
0.000806719      4.56793     -135.177 
0.000205116      2.44696     -135.993 
0.000200219      2.44663     -135.331 
0.000195924      2.43245     -135.000 
0.00178491      4.56811     -135.532 
0.000192349      3.39488     -146.778 
0.000378660      2.41868     -133.995 
0.000368489      3.41163     -146.962 
0.000183074      2.40483     -133.652 
0.000179166      2.39207     -132.628 
0.000350494      3.42841     -147.144 
0.000346690      2.37857     -132.274 
0.000332650      3.44523     -147.325 
0.000332899      2.36685     -131.231 
0.000784349      4.58240     -135.707 
0.000320305      2.35372     -130.865 
0.000470266      3.46208     -147.503 
0.000308104      2.34068     -130.495 
0.000296701      2.34307     -129.806 
0.000296062      3.47897     -147.680 
0.000859255      4.58284     -136.061 
0.000144387      2.33032     -129.428 
0.000282587      3.49588     -147.856 
0.000400819      3.51283     -148.029 
0.000268292      4.58345     -136.414 
0.000384974      4.58423     -136.768 
0.000253472      3.52982     -148.201 
0.000126934      4.58519     -137.121 
0.000123031      4.58764     -137.827 
0.000478144      3.54683     -148.371 
0.00147161     0.616117     -125.754 
0.000121413      4.58205     -135.000 
0.000119765      4.57948     -139.073 
0.000235125      2.28403     -127.171 
0.000118177      4.58214     -134.646 
0.000117017      4.58384     -139.778 
0.000115052      4.58284     -133.939 
0.000339784      3.56387     -148.540 
0.000340360      2.27200     -126.769 
0.000227001      4.57620     -140.675 
0.000329546      4.58345     -133.586 
0.000110210      4.57200     -143.180 
0.000326072      2.26009     -126.363 
0.000530250      3.55348     -148.815 
0.000215712      4.59922     -145.273 
0.000108583     0.600000     -126.870 
0.000414845      4.58423     -133.232 
0.000414384      2.24829     -125.952 
0.000310640      4.61567     -145.415 
0.000409332     0.588218     -125.311 
-0.000101546     0.553173      167.471 
0.000100687      3.54316     -149.092 
0.000100340      4.63215     -145.555 
0.000100231      2.23660     -125.538 
