! Center RA: 22 53 57.74794,  Dec: +16 08 53.56093 (2000.0)
! Established model.
! Flux (Jy) Radius (mas)  Theta (deg)  Major FWHM (mas)  Axial ratio   Phi (deg) T \
! Freq (Hz)     SpecIndex
   1.07786      0.00000      0.00000 
  0.223137    0.0200000      90.0000 
 0.0329986    0.0282843     -45.0000 
  0.124078    0.0447214      116.565 
  0.101442    0.0447214     -63.4349 
  0.140011    0.0721110     -56.3099 
  0.189843    0.0632456      108.435 
  0.194197    0.0632456     -71.5651 
 0.0900858    0.0600000      90.0000 
 0.0698957    0.0824621      104.036 
  0.662135    0.0800000      90.0000 
  0.496758    0.0824621     -75.9638 
  0.126243     0.240832      85.2364 
 0.0359875     0.272029     -107.103 
  0.158268     0.266833     -102.995 
  0.396816     0.240000      90.0000 
  0.109532     0.286356     -102.095 
 0.0513561    0.0600000     -90.0000 
  0.100472    0.0800000     -90.0000 
 0.0875640     0.263059     -98.7462 
  0.258474     0.180000     -90.0000 
  0.127815    0.0400000     -90.0000 
  0.105982     0.161245     -82.8750 
 0.0436081     0.282843     -98.1301 
 0.0108922    0.0200000     -90.0000 
 0.0201741    0.0447214     -116.565 
 0.0401737     0.305941     -101.310 
  0.173248     0.260000      90.0000 
 0.0437581     0.100000      90.0000 
 0.0847763     0.101980      101.310 
 0.0188713     0.302655     -97.5946 
  0.175964     0.322490     -97.1250 
 0.0480918     0.120000      90.0000 
0.00871356    0.0282843     -135.000 
 0.0165541    0.0447214     -153.435 
 0.0159014    0.0565685     -45.0000 
 0.0153172    0.0632456     -161.565 
0.00764885    0.0721110     -33.6901 
 0.0146695    0.0894427     -26.5651 
0.00734367    0.0800000      180.000 
  0.168898     0.121655      99.4623 
  0.101405     0.260768      94.3987 
 0.0140938    0.0824621     -165.964 
 0.0270488     0.107703     -21.8014 
 0.0319944     0.100000      180.000 
 0.0184782     0.126491     -18.4349 
 0.0121743     0.101980     -168.690 
 0.0237377     0.342345     -96.7098 
 0.0175353     0.320624     -93.5763 
 0.0296547     0.141421     -81.8699 
0.00581268    0.0894427     -63.4349 
  0.160974     0.280713      94.0856 
 0.0280310     0.200000     -90.0000 
 0.0219667     0.145602     -15.9454 
 0.0468163     0.120000      180.000 
 0.0412677     0.340588     -93.3665 
 0.0414425     0.121655     -80.5377 
 0.0103940     0.107703     -68.1986 
0.00503183     0.161245     -7.12502 
 0.0198755     0.280713     -85.9144 
 0.0236530     0.362215     -96.3402 
0.00965783     0.164924     -14.0362 
 0.0203074     0.140000      180.000 
0.00919811     0.220000     -90.0000 
 0.0296965     0.181108     -6.34019 
 0.0125420     0.384708     -98.9726 
 0.0803853     0.141421      171.870 
 0.0170766     0.382099     -96.0090 
 0.0737252     0.282843     -81.8699 
 0.0611142     0.260768     -85.6013 
 0.0162159     0.141421      98.1301 
0.00393391     0.180000      0.00000 
 0.0364030     0.401995     -95.7106 
 0.0393006     0.160000     -90.0000 
 0.0282057     0.145602      105.945 
 0.0144058     0.200000      0.00000 
0.00717889     0.126491     -71.5651 
0.00340855     0.144222     -33.6901 
 0.0271709     0.200998      5.71059 
0.00331075     0.400500     -92.8624 
0.00924975     0.161245     -29.7449 
0.00894360     0.305941     -78.6901 
 0.0632577     0.420000     -90.0000 
 0.0153990     0.170880      110.556 
  0.148753     0.300666      93.8141 
0.00315471     0.141421     -45.0000 
 0.0173711     0.160000      180.000 
 0.0130187     0.101980      78.6901 
0.00506497     0.196977      113.962 
0.00560688     0.156205     -39.8056 
0.00281178     0.178885      116.565 
 0.0196460     0.205913      119.055 
0.00266271     0.178885     -26.5651 
0.00264398     0.107703      68.1986 
 0.0374625     0.161245      172.875 
 0.0121913     0.172047     -35.5377 
 0.0166071     0.220907      5.19443 
 0.0270824     0.181108     -96.3402 
0.00681014     0.113137      45.0000 
0.00235280     0.341760     -69.4440 
0.00891963     0.386264     -111.251 
0.00894469     0.216333      123.690 
0.00227350     0.375766     -64.7989 
0.00225694     0.196977     -23.9625 
 0.0124857     0.384708     -62.1027 
 0.0374867     0.441814     -84.8056 
 0.0162627     0.188680     -32.0054 
0.00211950     0.200000      126.870 
 0.0134996     0.128062      38.6598 
 0.0167524     0.393954     -113.962 
0.00396366     0.161245     -97.1250 
 0.0105435     0.228035      127.875 
0.00773798     0.240832      4.76364 
0.00692379     0.212603      131.186 
0.00369819     0.180000      180.000 
0.00864152     0.394462     -59.5345 
 0.0332327     0.226274      135.000 
0.00705576     0.164924     -104.036 
 0.0197914     0.205913     -29.0546 
 0.0140216     0.260768      4.39871 
0.00507901     0.205913     -150.945 
0.00173050     0.164924      165.964 
 0.0109391     0.181108      173.660 
 0.0110399     0.404969     -57.0948 
0.00333294     0.144222      33.6901 
0.00168185     0.200000     -143.130 
0.00928563     0.402492     -116.565 
0.00315735     0.116619      59.0362 
0.00777160     0.216333     -146.310 
 0.0102283     0.444072     -82.2348 
0.00186982     0.412311     -50.9061 
 0.0111878     0.260000     -90.0000 
0.00735224     0.184391      167.471 
0.00449177     0.394462     -120.466 
 0.0100060     0.456070     -37.8750 
0.00436069     0.128062      51.3402 
0.00571339     0.223607     -153.435 
0.00678813     0.223607     -26.5651 
0.00676601     0.466476     -149.036 
0.00660557     0.404969     -122.905 
0.00674736     0.216333     -33.6901 
0.00541292     0.233238     -149.036 
 0.0101533     0.280000      0.00000 
 0.0109756     0.472017     -36.3844 
0.00452351     0.460435     -145.620 
0.00136333     0.161245      29.7449 
 0.0157996     0.200998      174.289 
0.00843330     0.411825     -60.9454 
0.00131670     0.141421      45.0000 
0.00130955     0.240832      138.366 
 0.0127835     0.178885      26.5651 
0.00356954     0.240000     -90.0000 
0.00497682     0.250599     -151.390 
0.00904297     0.411825     -119.055 
0.00956491     0.233238     -30.9638 
0.00855506     0.460435     -34.3803 
0.00790843     0.268328     -153.435 
0.00540880     0.203961      168.690 
 0.0124505     0.449444     -147.724 
0.00905266     0.200998     -95.7106 
0.00329843     0.416173     -125.218 
0.00573708     0.228035      142.125 
0.00217109     0.241661     -24.4440 
0.00440319     0.300000      0.00000 
0.00512582     0.286356     -155.225 
0.00211444     0.421900     -58.5704 
0.00105683     0.220907     -95.1944 
 0.0103120     0.444072     -35.8377 
 0.0127343     0.300666     -3.81407 
0.00571724     0.461736     -85.0303 
0.00103182     0.220000      180.000 
 0.0119919     0.250599     -28.6105 
 0.0118426     0.196977      23.9625 
0.00101422     0.449444     -57.7244 
0.00101070     0.440454     -87.3974 
0.00198217     0.428019     -127.405 
0.00919231     0.220907      174.806 
0.000997093     0.302655     -82.4054 
0.000975383     0.460435     -55.6197 
0.000971817     0.278568     -158.962 
 0.0168030     0.320000      90.0000 
0.00372796     0.304631     -156.801 
0.00189280     0.472017     -53.6156 
0.00264672     0.203961     -101.310 
0.000944968     0.398497     -107.526 
0.00183214     0.438634     -133.152 
0.00356679     0.322490     -82.8750 
0.000910712     0.484149     -51.7098 
0.00178786     0.412311     -112.834 
0.000900453     0.172047      35.5377 
0.00348106     0.297321     -160.346 
0.000893731     0.496790     -49.8991 
0.00171657     0.439090     -149.931 
0.000876334     0.509902     -48.1798 
0.00336778     0.208806      163.301 
0.000869799     0.452548     -135.000 
0.00762950     0.260000     -22.6199 
0.000860792     0.460435     -87.5104 
0.00328881     0.291204     -164.055 
0.00375907     0.440454     -140.528 
0.00870454     0.215407      111.801 
0.00167760     0.523450     -46.5482 
0.00854479     0.184391     -102.529 
0.00167443     0.423792     -109.290 
0.000851047     0.429418     -152.241 
 0.0105546     0.416173     -35.2176 
0.000841530     0.500000     -53.1301 
0.00165744     0.483735     -82.8750 
0.000835829     0.320624     -86.4237 
0.00164831     0.453431     -131.424 
0.000832172     0.189737     -108.435 
0.00692869     0.282843     -8.13010 
0.00278773     0.411825     -150.945 
0.00528542     0.340588     -86.6335 
0.00302144     0.244131      145.008 
0.00159424     0.524976     -49.6355 
0.00157988     0.316228     -161.565 
0.00375557     0.506360     -80.9097 
0.00156783     0.537401     -45.0000 
0.00660131     0.215407      21.8014 
0.000788013     0.466476     -120.964 
0.00360714     0.402492     -153.435 
 0.0151921     0.223607      169.695 
0.000781011     0.481664     -85.2364 
 0.0267384     0.272029     -17.1027 
0.00153265     0.477074     -123.024 
0.000896623     0.421900     -148.570 
 0.0117990     0.340000     -90.0000 
0.000763721     0.286356     -167.905 
0.00678606     0.553173     -40.6013 
0.00133723     0.341760     -159.444 
0.000749725     0.233238      149.036 
0.00147804     0.516140     -54.4623 
0.000745532     0.488262     -124.992 
0.00343709     0.188680      32.0054 
0.00491286     0.310483     -165.069 
0.00458483     0.428019     -142.595 
0.000737760     0.451221     -102.804 
 0.0126577     0.432666     -33.6901 
0.000728134     0.438634     -136.848 
0.00265033     0.393954     -156.038 
0.00142627     0.493964     -121.759 
0.00757454     0.268328     -26.5651 
0.00209010     0.528015     -52.6961 
0.00443673     0.425206     -138.814 
0.000699249     0.456070     -105.255 
0.00201006     0.503587     -83.1572 
0.00134381     0.504777     -123.690 
0.000677740     0.463897     -97.4314 
0.000671891     0.512250     -128.660 
0.00276823     0.260768      147.529 
0.00419631     0.335261     -162.646 
0.000668463     0.532541     -55.7131 
 0.0148858     0.340588      86.6335 
 0.0101580     0.568507     -39.2894 
0.00276988     0.416173     -144.782 
0.000653017     0.540370     -51.0090 
0.00128428     0.516140     -125.538 
0.00295019     0.305941     -168.690 
0.00289130     0.566392     -42.1376 
0.00125756     0.466905     -99.8658 
0.00306541     0.544059     -53.9726 
 0.0167884     0.329848     -165.964 
0.00294479     0.529528     -79.1145 
0.00564625     0.205913      29.0546 
0.00179843     0.470744     -102.265 
0.00235757     0.234094      19.9831 
0.00452791     0.404969     -32.9052 
0.000618869     0.524976     -130.365 
0.00346134     0.288444      146.310 
0.00175900     0.538145     -131.987 
 0.0166130     0.412311     -140.906 
0.00222692     0.475395     -104.621 
0.00319097     0.208806      106.699 
0.000576641     0.528015     -127.304 
0.00111918     0.556058     -52.3058 
0.00165352     0.560357     -55.1755 
0.000987630     0.360555     -86.8202 
0.000554517     0.521536     -122.471 
0.00458016     0.305287      148.392 
0.00807538     0.240832      175.236 
0.00208324     0.551725     -133.531 
0.00308574     0.360000     -90.0000 
0.00201519     0.526118     -81.2538 
0.000982918     0.252982      18.4349 
0.000522080     0.487032     -109.179 
0.00437561     0.572014     -53.5308 
0.000515532     0.501597     -113.499 
0.00101105     0.300666      3.81407 
0.00464278     0.223607      26.5651 
0.00503551     0.483735     -97.1250 
0.00544697     0.421900     -31.4296 
0.00184569     0.481664     -94.7636 
0.00636530     0.581378     -40.8151 
0.00413942     0.360555     -160.560 
0.000492518     0.509902     -115.560 
0.00465482     0.322490      150.255 
0.00186751     0.518845     -117.553 
0.00290055     0.266833     -12.9946 
0.00136410     0.565685     -135.000 
0.00218470     0.320624      3.57633 
0.000472178     0.160000      90.0000 
0.00168272     0.161245      82.8750 
0.000455842     0.553173     -77.4712 
0.00264556     0.588218     -54.6888 
0.000881749     0.566392     -137.862 
0.000870629     0.228035      105.255 
 0.0141558     0.342345      83.2902 
0.00168655     0.528394     -119.476 
0.00165285     0.549181     -79.5085 
0.00331462     0.354401     -163.610 
0.00696776     0.349857      149.036 
0.00397038     0.241661      24.4440 
0.00636920     0.600000     -53.1301 
0.000408281     0.272029      17.1027 
0.00409212     0.581378     -139.185 
0.00183739     0.247386      104.036 
0.00236056     0.400000     -143.130 
0.00558030     0.439090     -30.0686 
0.00705575     0.243310      170.538 
0.00588058     0.161245      60.2551 
0.00185101     0.538516     -121.329 
0.00149265     0.322490      7.12502 
0.00108196     0.410366     -46.9749 
0.00243949     0.572713     -77.9052 
0.00257754     0.396989     -139.086 
0.000375248     0.486621     -99.4623 
0.00682705     0.367151      150.642 
0.00209481     0.342345      6.70984 
0.00345432      1.08665      6.34019 
0.00302570     0.528015     -114.624 
0.00113858     0.325576     -169.380 
0.000640930     0.260000      22.6199 
0.000324299     0.425206     -48.8141 
0.00239015     0.612209     -51.6325 
0.00125605     0.584123     -38.0470 
0.00480275     0.260768      175.601 
0.000627523     0.252982      108.435 
0.00360597     0.596657     -140.440 
0.00134144     0.345254      79.9920 
0.00107762     0.536656     -116.565 
0.000310927     0.536656      26.5651 
0.000310074     0.596657     -76.4296 
0.00199820     0.362215      6.34019 
0.000679558     0.313050     -63.4349 
0.000676182     0.260768     -32.4712 
0.00131696     0.331059     -64.9831 
0.000638351     0.233238     -59.0362 
0.00216874     0.349285     -76.7595 
0.00350197     0.345254      10.0080 
0.00121940     0.223607     -63.4349 
0.000603396     0.384187     -141.340 
0.00108778     0.368782     -77.4712 
0.00454443     0.375766     -154.799 
0.000587325     0.384187     -51.3402 
0.00156201     0.384708     -81.0274 
0.00163147     0.395980     -135.000 
0.000569559     0.396989     -49.0856 
0.00110854     0.520000     -112.620 
0.000556876     0.424264     -45.0000 
0.00108859     0.388330     -78.1113 
0.00244158     0.580000     -136.397 
0.00279767     0.215407     -68.1986 
0.000543810     0.456508     -28.8108 
0.00268945     0.410366     -136.975 
0.000539558     0.524976     -40.3645 
0.00381681     0.228035      164.745 
0.000534457     0.278568     -21.0375 
0.00157146     0.329848      14.0362 
0.00104734     0.566039     -57.9946 
0.00173816     0.384708     -152.103 
0.00153878     0.474131     -27.6460 
0.00103144     0.538145     -41.9872 
0.00102060     0.500000     -90.0000 
0.000506072     0.583095     -59.0362 
0.00137084     0.316228      18.4349 
0.00395291     0.302655     -172.405 
0.000979968     0.528015      24.6236 
0.000972681     0.576888     -56.3099 
0.000492685     0.310483      14.9314 
0.000964736     0.234094      160.017 
0.00354925     0.362215     -83.6598 
0.000486537     0.577235     -75.9638 
0.00228895     0.491935     -26.5651 
0.00258227     0.297321      19.6538 
0.00110861     0.500400     -92.2906 
0.00360043     0.364966     -80.5377 
0.00292279     0.518845      27.5528 
0.00479627     0.501597     -94.5739 
0.00399484     0.286356     -12.0948 
0.000882436     0.509902      25.5600 
0.000453346     0.582409     -74.0546 
0.000446201     0.250599      151.390 
0.000444458     0.604649     -55.7843 
0.00369738     0.208806     -73.3008 
0.000440015     0.560357     -124.824 
0.000819519     0.601664     -74.5778 
0.00272822     0.509902     -25.5600 
0.000418282     0.545894     -118.443 
0.00121261      1.06677      6.45882 
0.000791163     0.607289     -72.7585 
0.000411700     0.260000      180.000 
0.000410815     0.223607      116.565 
0.000428514     0.341760     -110.556 
0.00114280     0.241661      114.444 
0.000395364     0.616117     -54.2461 
0.00114238     0.555698     -120.256 
0.000769135     0.382099      6.00901 
0.000805433     0.286356      24.7751 
0.00284214     0.626418     -73.3008 
0.00330013     0.501199      28.6105 
0.000357938     0.401995      5.71059 
0.000691134     0.628013     -52.7652 
0.00301570     0.268328      26.5651 
0.00254658     0.528015     -24.6236 
0.000419986     0.329848     -104.036 
0.000346560     0.421900      5.44033 
0.000671212     0.624820     -50.1944 
0.000974588     0.260000      112.620 
0.000641733     0.503587     -96.8428 
0.00155953     0.566039     -122.005 
0.00124208      1.10454      5.19443 
0.000334792     0.441814      5.19443 
0.000963769     0.596657     -39.5597 
0.000654296      1.10653      6.22583 
0.000639324     0.461736      4.96974 
0.00139944     0.367696     -157.620 
0.000630578     0.172047      54.4623 
0.00117286     0.640312     -51.3402 
0.000309172      1.12641      6.11550 
0.00236340     0.491935      26.5651 
0.000604666     0.500400      2.29061 
0.000888970      1.23045      7.47156 
0.000845511     0.637809     -48.8141 
0.00185148     0.546260     -23.7495 
0.000561124     0.501597      4.57392 
0.00169682     0.278568      111.038 
0.00181082     0.612209     -38.3675 
0.000281321      1.25028      7.35238 
0.000543177     0.520384      2.20260 
0.000546272      1.12285      4.08562 
0.000276602     0.563560     -117.474 
0.00131048      1.25300      8.25944 
0.00200121     0.203961     -78.6901 
0.00174161     0.804487     -124.875 
0.00173667     0.651460     -72.1213 
0.00151898     0.332866      147.265 
0.000260111      1.20067      1.90915 
0.000260046     0.576888     -123.690 
0.00117786     0.540370      2.12110 
0.00122266      1.24016     0.924045 
0.00115304     0.652993     -49.9697 
0.000289013     0.323110     -111.801 
0.000937934     0.941488      12.2648 
0.00128724     0.609590     -138.991 
0.00160928      1.27279      8.13010 
0.00258546     0.444072     -144.162 
0.000473694     0.588218     -125.311 
0.000679225     0.564624     -22.9321 
0.000450922     0.521536      4.39871 
0.000453054      1.24000      0.00000 
0.000435611     0.628013     -37.2348 
0.000224979     0.340000      151.928 
0.00188994     0.793221     -123.690 
0.00227367     0.645601     -73.8108 
0.000438478     0.375766      64.7989 
0.00210702     0.612209     -141.633 
0.000437024     0.624820     -39.8056 
0.000219783     0.583095     -120.964 
0.00219478      1.26000      0.00000 
0.000631586     0.921954      12.5288 
0.000213482     0.572713     -24.7751 
0.000816788      1.29259      8.00473 
0.000791494     0.590931     -23.9625 
0.00166580     0.340000      90.0000 
0.00267806     0.772787     -100.437 
0.000952233     0.593633     -122.619 
0.000752065     0.666033     -48.6522 
0.000202909     0.384708      62.1027 
0.000389445     0.520384     -92.2026 
0.00125706     0.640312     -38.6598 
0.00135755     0.560357      2.04541 
0.00482263     0.926499      13.7363 
0.000196789     0.456070     -142.125 
0.000928499      1.29553      8.88066 
0.000599940     0.394462      59.5345 
0.000371987     0.286356      114.775 
0.000518984     0.832346     -125.218 
0.00122380     0.304631      23.1986 
0.000513406     0.220907     -84.8056 
0.00133715     0.465188      25.4633 
0.000366376     0.668431     -51.0725 
0.000186147     0.541479      4.23639 
0.00171675     0.280000      180.000 
0.000644910     0.223607     -79.6952 
0.00102302     0.609262     -23.1986 
0.00195164      1.26016    -0.909380 
0.000182243     0.637809     -41.1859 
0.00136506     0.472017     -143.616 
0.00183213     0.520000     -90.0000 
0.000446793     0.310483     -104.931 
0.000614814     0.792464     -100.176 
0.00128710     0.340588      93.3665 
0.000640689     0.684105     -52.1250 
0.00228738      1.31529      8.74616 
0.00119229     0.404969      57.0948 
0.00329890     0.297321      109.654 
0.000492076     0.604649     -124.216 
0.000460320     0.688186     -54.4623 
0.000603211     0.652993     -40.0303 
0.00289109      5.68595     -66.1398 
0.00263681      1.01390     -112.011 
0.000305385      1.28000      0.00000 
0.000663932      5.71234     -66.0375 
0.00144298     0.844038     -126.327 
0.000153792     0.561427      4.08562 
0.000582322     0.627694     -22.4794 
0.000437974     0.612209     -128.367 
0.000494870     0.323110      21.8014 
0.000432755     0.640312     -75.5297 
0.000149170     0.622254     -135.000 
0.000143957      1.30015     0.881404 
0.00193323     0.412311      22.8337 
0.00124413     0.416173      54.7824 
0.000406664      1.32061      1.73570 
0.000271872     0.681175     -49.7636 
0.00157988     0.580345      1.97493 
0.000751965      1.24065     -1.84761 
0.00107666     0.438634      24.2277 
0.000975800     0.656049     -37.5686 
0.000567903     0.622896     -132.397 
0.000909438     0.349285     -166.759 
0.000516993     0.635610     -77.2756 
0.000134693     0.639062     -20.1363 
0.000579059     0.782304     -122.471 
0.000803215     0.657875     -19.5367 
0.000249443     0.616117     -125.754 
0.000243842     0.342345      96.7098 
0.000614292     0.700000     -53.1301 
0.000502611      1.33507      8.61565 
0.000821850      1.26063     -1.81830 
0.00308136     0.769415     -98.9726 
0.00163889      1.34060      1.70981 
0.00162068      6.42872     -78.5153 
0.000245964     0.360555      93.1798 
0.00100435      6.07190     -72.1619 
0.000728640     0.540000     -90.0000 
0.00119763      1.33821      9.46232 
0.000241181     0.646220     -21.8014 
0.00106476      6.54150     -65.2371 
0.000534765     0.600000     -143.130 
0.000221701     0.679412     -47.3859 
0.000537283     0.362215      96.3402 
0.00131453      8.33271     -60.0504 
0.000341495     0.631506     -79.0459 
0.00154526     0.428019      52.5946 
0.000398628     0.488262     -145.008 
0.00135697     0.624820     -129.806 
0.00106185     0.678822     -45.0000 
0.00149546      9.12956     -68.9445 
0.000599846     0.716101     -54.0903 
0.00105035      5.70424     -66.2211 
0.00132532      1.02157     -113.051 
0.00132603     0.280713      175.914 
0.000302815     0.655134     -77.6609 
0.00199452     0.345254     -169.992 
0.00100957      1.24145     -2.77022 
0.000104133     0.516140      35.5377 
0.000102566     0.152315      66.8014 
0.000201320      6.32923     -67.3244 
0.00123638     0.263059      171.254 
0.000471120     0.660303     -35.1342 
0.00382636     0.384708      152.103 
0.000101878     0.659697     -75.9638 
0.000199643      5.50102     -69.1270 
0.000659951     0.581378      3.94519 
0.00319660      5.23083     -74.4759 
9.93204e-05      6.56664     -77.8687 
0.00148499     0.676757     -18.9704 
0.000732193     0.734302     -119.358 
0.000282624     0.407922      101.310 
0.000483017     0.329848     -75.9638 
9.65678e-05     0.664831     -21.1613 
0.000786437      5.49392     -69.3219 
0.000274146     0.216333     -56.3099 
0.00102240      1.35794      9.32359 
9.55929e-05      6.56247     -78.0394 
0.000537332      6.10328     -71.8619 
0.000272044      6.32155     -67.4917 
9.38414e-05     0.628013     -80.8377 
0.000524726      6.58204     -78.0755 
0.000440335      8.23772     -69.9812 
0.000736834     0.884081     -127.648 
0.000725500     0.572014     -143.531 
0.000346770     0.651153     -79.3803 
0.000412914      6.40515     -78.6550 
0.00195780      6.54990     -65.0782 
0.000779168     0.693109     -46.1691 
0.00118895      8.35268     -67.9184 
0.000257656     0.427551      100.784 
0.000172134     0.721110     -56.3099 
8.73458e-05     0.432666     -146.310 
0.00173280      6.62565     -68.3913 
8.67130e-05     0.430813      21.8014 
0.00107490      9.66946     -64.1239 
8.59419e-05     0.300666     -93.8141 
0.00106878      6.08358     -78.4315 
0.00135370      1.04000     -112.620 
0.000471306     0.912140      15.2551 
0.00106050     0.665733     -32.7352 
0.000906428      7.95150     -63.2416 
0.000287917     0.205913     -60.9454 
0.00181913      1.36059      1.68468 
0.000356904      6.33242     -67.7281 
0.000874196      8.32541     -59.8625 
0.00193040      1.26143     -2.72631 
0.00141682      5.64354     -73.1063 
8.16815e-05     0.532541      34.2869 
0.000836272      8.23089     -70.1120 
0.000888387     0.431741      103.392 
0.000661446      6.09708     -72.0405 
0.000376785     0.732393     -55.0080 
0.000447814     0.647765     -81.1193 
0.000451412      6.60161     -78.1113 
0.000402157     0.212603     -48.8141 
0.000849208      5.50563     -69.5901 
0.000760465      9.12239     -69.0617 
7.70654e-05      5.63322     -66.3473 
0.000933089      8.70294     -63.0816 
-7.53691e-05      4.96588     -64.9831 
0.000690610      9.13893     -60.0685 
0.00130948     0.931450      14.9314 
0.000647595      5.79227     -75.1960 
0.00104753      1.36132      10.1543 
-0.00120335      4.98401     -65.0803 
0.000297652      4.66412     -82.1131 
0.000592776      7.59895     -68.7026 
0.000197002      5.60689     -66.4525 
7.12815e-05     0.549181      33.1113 
0.000555639      7.94252     -63.3704 
0.000949653      8.36875     -65.5787 
0.000371603      8.22652     -68.6125 
7.09707e-05     0.912140     -127.875 
0.000863809      3.57015     -75.7302 
0.000576305      6.40912     -78.4797 
0.000739896      8.88948     -66.9537 
0.000317238      3.89173     -77.5351 
0.000298633     0.789177     -98.7462 
0.000389716      6.62118     -78.1470 
0.000452093     0.940213     -128.089 
0.00122357      4.66690     -81.8699 
0.000515444      9.16624     -60.0225 
0.000132297     0.737835     -57.1715 
6.73515e-05     0.440454      50.5275 
0.000773913      9.46412     -62.5685 
0.000419815      8.42722     -62.2795 
0.000887609      9.65147     -64.0721 
0.000423750      9.35173     -66.5601 
0.000683585      7.46879     -57.7995 
6.54630e-05     0.532541     -145.713 
0.000128174     0.670820     -79.6952 
6.42120e-05      6.60706     -68.3274 
0.000849466      5.05336     -71.7802 
0.000249167      5.78719     -75.3875 
0.000284768     0.544059     -143.973 
0.000336829      8.20790     -68.5615 
0.000711391      6.12229     -71.9202 
6.30983e-05      5.38360     -66.5778 
0.000552240     0.748866     -55.8855 
0.000919152     0.637809     -131.186 
6.25059e-05     0.560357      34.8245 
0.000342152      5.77810     -74.9536 
0.000209705      8.07606     -66.0375 
0.000121622     0.364966     -170.538 
0.00117018      5.35731     -66.6891 
6.06850e-05     0.335261     -72.6460 
0.000506933     0.667533     -81.3844 
0.000175517      7.86308     -67.4138 
0.000634820     0.516140     -144.462 
0.000717573      9.09657     -69.1343 
0.000115881     0.228035     -37.8750 
0.000172657      3.71295     -72.4435 
0.000172473     0.291204     -105.945 
0.000531974      6.64075     -78.1824 
0.000798466     0.968297     -128.290 
0.000195927      6.34341     -67.9638 
0.00121218      7.61758     -68.7573 
0.000274900      7.57617     -60.5928 
0.000489646      6.14003     -67.1935 
0.000406107      9.64274     -64.1790 
0.000681017      8.22411     -70.2431 
5.65397e-05      8.18929     -68.5104 
0.000249903     0.394462     -149.534 
0.000902631      3.89610     -77.2479 
0.000158634      8.06796     -66.1673 
0.00107801      8.71201     -62.9644 
0.000858928      5.49869     -69.7854 
0.000296281     0.310483      104.931 
-0.00182669      8.54962     -68.5968 
0.000507358      7.85542     -67.5485 
0.00207481     0.250599      28.6105 
0.000904861      8.87108     -66.9032 
0.000297923      9.33338     -66.5112 
0.000608418     0.500400     -87.7094 
0.00146925      6.99588     -70.6327 
0.000462955      8.14474     -68.5382 
5.32777e-05      5.86147     -69.2151 
0.000429171      4.82029     -80.9285 
0.000248599      3.71903     -72.1497 
5.29508e-05      5.65123     -73.5532 
0.000442396      5.45601     -73.8238 
0.000741527     0.640312     -128.660 
5.23160e-05      8.16336     -68.5896 
0.000409037      6.10318     -78.4691 
0.000995392      7.64997     -57.0578 
0.000891133      5.29199     -81.9618 
0.000101870      8.43654     -62.1592 
0.000700743      9.47335     -62.4612 
0.000712911      9.18024     -64.9982 
5.12817e-05      7.84500     -55.1755 
5.10366e-05     0.600333      1.90915 
0.000100097      6.36195     -68.0314 
0.000143209      7.87391     -67.6040 
0.000258735      5.86859     -69.0326 
0.000884672      6.79297     -80.5099 
0.000446071     0.695701     -18.4350 
0.000285468      1.38101      10.0080 
0.000232901      5.64560     -73.7479 
0.000544808      7.62732     -65.8545 
0.000435975      7.54893     -60.6505 
0.000667357      5.45047     -74.0257 
9.67801e-05      7.82859     -55.0919 
0.000258388     0.252982     -18.4349 
0.000277074      1.25220     -116.565 
0.000144368      8.59144     -70.1308 
0.00101486      4.36440     -72.3954 
0.000577739     0.456070      105.255 
9.54478e-05     0.233238      30.9638 
0.000934787      5.05964     -71.5651 
0.000548131      6.55835     -64.9198 
0.000200517      7.85644     -55.0558 
0.000397814      5.38535     -78.6483 
4.83354e-05      8.46357     -62.1027 
0.000322750     0.936803      16.1134 
0.000230178      1.07201     -98.5836 
4.80200e-05      6.38050     -68.0985 
0.000444744      1.26127     -117.378 
0.000304563      6.61831     -68.5523 
0.000362641      6.18967     -63.9317 
0.000403154     0.212603     -41.1859 
0.000298817     0.664831     -83.0888 
0.00102415      4.75622     -71.1079 
0.000180729      6.39906     -68.1653 
9.27474e-05     0.693109     -43.8309 
0.000233793      5.59089     -62.5183 
9.17991e-05      8.47294     -61.9832 
-0.000587293      9.73318     -62.3292 
0.000471282      6.66033     -78.2177 
4.64024e-05      8.31820     -59.6742 
4.62794e-05      6.59970     -68.4888 
0.000299413     0.765506     -56.7251 
4.60679e-05     0.316228     -108.435 
0.000377443      8.36050     -65.7035 
9.04527e-05      6.14967     -82.7132 
0.000600031      8.61705     -70.0510 
0.000463231      3.74422     -71.9522 
0.000301477      4.58668     -68.2450 
0.000165972     0.200000     -53.1301 
0.000204074     0.620323      1.84761 
0.000345466      6.68637     -70.4269 
-0.000255892      6.00353     -61.9837 
0.000726357      8.13349     -68.3556 
0.000468677      5.44243     -73.5629 
0.000567797      7.84005     -54.9721 
8.78585e-05      5.93784     -76.7595 
0.000213352     0.707107     -45.0000 
0.000423542     0.682642     -31.8274 
0.000244163      5.25547     -74.3242 
0.000251395      9.31504     -66.4622 
4.41586e-05      5.78332     -74.7623 
4.41316e-05     0.345254     -79.9920 
8.52177e-05      8.48236     -61.8639 
0.000751900      1.34937      11.9761 
0.000538779      3.56528     -76.0417 
0.000460634     0.367151     -150.642 
0.000282956      6.14716     -82.8981 
0.000280202      1.28141     -2.68378 
0.000159689      1.18828      6.76617 
0.000206940      9.14892     -59.9599 
0.000276947      8.55126     -60.7371 
0.000428613      9.06369     -69.3256 
0.00100755     0.942550      17.2815 
4.29453e-05      1.04785     -113.629 
4.27583e-05      6.09738     -76.1461 
8.35662e-05      6.41024     -68.3978 
0.000581010      1.09179     -98.4270 
0.000119463      9.35643     -64.1470 
0.000572305      4.88172     -84.5931 
0.000386973      5.95731     -76.8035 
0.000510873      5.84277     -69.1455 
0.000735591      1.31027     -121.264 
4.13458e-05      1.04019     -1.10171 
0.000474126      8.21737     -70.3743 
0.000156801      4.84648     -76.8813 
0.000297370      6.38555     -78.6197 
0.000750724      1.36015     0.842524 
4.05259e-05      6.30796     -66.8491 
0.000850715      4.23065     -63.3138 
0.000156653     0.984073     -127.569 
0.000366018      4.82348     -80.6939 
0.000522766      6.41763     -68.2317 
0.000515283      4.59413     -68.0133 
0.000190341      6.80132     -76.7402 
0.000512383      1.02000      0.00000 
0.000619270     0.707672     -42.7094 
7.79079e-05      5.64004     -73.9430 
-0.000513723      6.01295     -61.8154 
6.82306e-05      6.09262     -76.3287 
0.000416382      5.38145     -78.8571 
0.000346873     0.421900      58.5704 
0.00130335     0.247386     -14.0362 
0.000114647      6.59239     -68.6505 
0.000112315      8.08421     -65.9080 
0.000290746      9.29671     -66.4130 
0.000492720     0.776660     -55.4915 
0.000343889      6.95402     -66.9745 
0.000140033     0.322490      97.1250 
0.000514730      7.54899     -63.5707 
7.39921e-05      8.49181     -61.7449 
0.000526920      5.73062     -66.1187 
0.000375637      5.25985     -64.3119 
-0.000637410      4.39973     -75.5216 
0.000177649      4.47558     -78.1377 
0.000421935     0.996393     -128.480 
0.000234646      7.28011     -69.0755 
0.000483171     0.652993     -130.030 
0.000193304      7.86631     -67.7387 
0.000507132      6.14472     -83.0832 
0.000419475      6.61102     -68.7136 
0.000631014      1.20930     -124.216 
0.000194234      6.11425     -69.3123 
0.000255183      6.93908     -79.3702 
-0.000909584     0.628013     -170.838 
6.56878e-05      4.87052     -76.7056 
3.60372e-05      5.63777     -73.3008 
-0.000236065      6.86676     -83.3097 
0.000103830     0.500000     -143.130 
7.04124e-05      6.42884     -68.4634 
0.000371407      5.26091     -74.1144 
6.92391e-05      1.40071      9.86581 
0.000130675      7.56637     -60.7247 
0.000160381      3.80867     -79.1031 
0.000247637      4.85106     -76.6513 
0.000462636      6.82539     -76.6153 
6.93322e-05      8.12613     -68.4866 
0.000282045      5.63205     -73.4956 
0.000460883      8.08913     -71.6994 
3.47344e-05     0.610574      31.6075 
9.92869e-05      8.09239     -65.7787 
3.43010e-05      8.51082     -61.5077 
0.000427801     0.377359     -147.995 
0.000367088      9.03792     -69.3994 
-0.000191088      8.69216     -58.3580 
6.48092e-05      6.43621     -68.2978 
0.000160930      5.74474     -81.3903 
6.51974e-05      1.30138     -2.64255 
0.000391283      5.41084     -82.1395 
0.000421366      9.28642     -66.2505 
9.52763e-05     0.335261     -107.354 
0.000359611      4.45192     -78.3367 
9.75222e-05      8.53960     -61.1539 
6.54477e-05      5.32319     -66.9993 
-0.000275092      6.52043     -63.1992 
3.28890e-05      9.34773     -64.2573 
0.000210875      6.36594     -78.5842 
0.000211001      6.19022     -64.3456 
0.000125180      1.42042      9.72758 
9.07475e-05      6.14781     -67.0217 
0.000179467      7.65376     -65.7791 
0.000178579      6.10721     -78.2853 
0.000230910     0.402492      153.435 
3.18283e-05      1.21062      7.59464 
0.000176481      9.17180     -65.1114 
0.000116349     0.197990     -45.0000 
8.96415e-05      6.67970     -70.5885 
6.20078e-05     0.950789      14.6209 
0.000200714      1.36000      0.00000 
0.000203251      5.31541     -67.1977 
6.06805e-05     0.627694      30.6507 
-0.000519072     0.565685     -8.13010 
-0.000232479      6.86446     -83.4755 
0.000173320     0.640312      1.78991 
-0.000261235      5.76906     -63.4349 
0.000148707      8.54927     -61.0365 
9.04275e-05      7.86791     -54.9364 
0.000117937      3.98246     -65.3655 
5.99397e-05      8.23383     -68.4829 
3.06650e-05      6.12852     -71.7424 
0.000115545      3.75047     -71.6617 
0.000231418      4.38953     -72.2255 
6.01822e-05      8.10062     -65.6497 
0.000115349      7.98742     -63.0500 
-0.000227468      6.36855     -63.9178 
0.000142339      8.23621     -70.4210 
0.000170618      5.74178     -81.5877 
0.000168834      7.85155     -54.8525 
0.000114253      5.22456     -64.6121 
0.000141746      1.44014      9.59313 
0.000113184      5.06600     -71.3505 
0.000140800      6.92780     -67.0620 
0.000139748      6.99042     -72.8611 
0.000113473      1.09490     -99.4623 
5.71786e-05      8.37873     -65.7598 
-0.000113033      8.68168     -58.4703 
0.000167811      3.80552     -66.1292 
0.000112997      5.30961     -59.1843 
5.69435e-05      6.14752     -71.8008 
8.36584e-05      5.35798     -79.0256 
2.84756e-05      4.56811     -68.1520 
5.53613e-05     0.411825      60.9454 
8.30531e-05      8.65647     -69.7228 
2.83869e-05     0.945939      13.4486 
8.27555e-05      7.29548     -67.0902 
2.81374e-05      9.57449     -68.0430 
-0.000109963      5.10286     -82.5686 
5.53089e-05      4.57559     -67.9196 
5.52486e-05      1.00020      1.14576 
-8.21377e-05      9.78922     -65.1104 
8.22340e-05      4.94647     -62.8133 
5.48355e-05      1.36132      2.52612 
5.50889e-05      8.55897     -60.9194 
5.45758e-05     0.644981      29.7449 
8.18303e-05      3.91454     -60.2914 
2.76725e-05      8.10888     -65.5210 
2.76184e-05     0.987927     -111.371 
5.48260e-05      6.18159     -64.5127 
5.43460e-05      9.56703     -68.1541 
2.75353e-05      3.56051     -76.3540 
5.44048e-05      6.60379     -68.8753 
2.74615e-05      6.15565     -66.8503 
5.44713e-05     0.388330     -145.491 
2.72888e-05      1.24338     -115.741 
2.71728e-05      1.45986      9.46232 
2.71474e-05      7.85875     -67.8737 
2.71042e-05     0.263059     -8.74616 
2.70505e-05      5.62640     -73.6909 
2.70354e-05     0.708802     -16.3895 
2.68664e-05      6.42750     -75.4016 
2.68927e-05      5.95278     -76.9910 
2.67981e-05      3.97417     -65.6276 
