! Center RA: 08 54 48.87493,  Dec: +20 06 30.64078 (2000.0)
! Established model.
! Flux (Jy) Radius (mas)  Theta (deg)  Major FWHM (mas)  Axial ratio   Phi (deg) T \
! Freq (Hz)     SpecIndex
  0.410637    0.0200000      0.00000 
  0.652507    0.0282843     -45.0000 
  0.174937      0.00000      0.00000 
  0.374718     0.228035      142.125 
  0.110310    0.0565685     -45.0000 
 0.0825634    0.0848528     -45.0000 
 0.0314789    0.0282843      135.000 
  0.100471     0.113137     -45.0000 
  0.167871     0.256125      141.340 
 0.0670661    0.0565685      135.000 
  0.188126     0.128062     -51.3402 
  0.326557    0.0447214      116.565 
  0.132888     0.272029      143.973 
  0.182763     0.144222     -56.3099 
  0.261655     0.300000      143.130 
 0.0384906     0.161245     -60.2551 
0.00471050     0.156205     -50.1944 
0.00454866     0.144222     -33.6901 
 0.0199384     0.134164     -26.5651 
 0.0239326     0.178885     -63.4349 
0.00776359    0.0400000      90.0000 
 0.0385840     0.189737     -71.5651 
 0.0364296     0.152315     -23.1986 
 0.0286101     0.208806     -73.3008 
0.00250734     0.215407     -68.1986 
 0.0194971     0.178885     -26.5651 
0.00992784     0.170880     -20.5560 
 0.0958084     0.328024      142.431 
 0.0149074     0.228035     -74.7449 
0.00678591    0.0632456      108.435 
0.00357589     0.116619     -120.964 
0.00812793     0.196977     -23.9625 
 0.0149446     0.113137     -135.000 
0.00640075     0.243310     -80.5377 
 0.0126785    0.0721110      123.690 
0.00442268     0.260768     -85.6013 
0.00964539     0.189737     -18.4349 
0.00276911     0.244131     -55.0080 
 0.0136461     0.280000     -90.0000 
0.00376431     0.256125     -51.3402 
 0.0134182     0.128062     -141.340 
 0.0137529     0.208806     -16.6992 
0.00333501     0.269072     -48.0128 
0.00425493     0.116619     -149.036 
 0.0181930     0.300666     -93.8141 
0.00574697     0.282843     -45.0000 
0.00358432    0.0848528      135.000 
 0.0134140     0.203961     -11.3099 
0.00159547     0.300000     -90.0000 
0.00550386     0.297321     -42.2737 
0.00162600     0.121655     -170.538 
0.00313657     0.280713     -94.0856 
0.000801478     0.126491     -161.565 
0.00152275     0.141421     -135.000 
0.00150656     0.100000      143.130 
0.000731236     0.144222     -146.310 
0.00332602     0.120000      180.000 
0.00139124     0.156205     -129.806 
0.00266145     0.312410     -39.8056 
0.000677764     0.121655      170.538 
0.000665201     0.311127     -45.0000 
0.00258907     0.312410      140.194 
0.00125659     0.169706     -135.000 
0.00267300     0.100000      126.870 
0.000639441     0.156205     -140.194 
0.000620872     0.172047     -125.538 
0.00490903     0.325576     -42.5104 
0.00758516     0.140000      180.000 
0.00164025     0.188680     -122.005 
0.00757026     0.141421     -171.870 
0.00314636     0.184391     -130.601 
 0.0109953     0.223607     -10.3048 
0.000544497     0.320000     -90.0000 
0.00105113     0.360555     -86.8202 
0.00200427     0.328024     -37.5686 
0.00234057     0.266833     -102.995 
0.000502707     0.205913     -119.055 
0.000501515     0.380526     -86.9872 
0.00317543     0.676757     -108.970 
0.00187019     0.400500     -87.1376 
0.00164552     0.252982     -108.435 
0.00516176     0.340588     -40.2364 
0.00127338     0.420476     -87.2737 
0.000796401     0.107703      111.801 
0.00157943     0.670522     -107.354 
0.00290702     0.200000     -126.870 
0.000402931     0.420000     -90.0000 
0.00185505     0.440000     -90.0000 
0.00110684     0.305941     -78.6901 
0.00496774     0.651460     -107.879 
0.00443280     0.835225     -106.699 
0.000702552     0.278568     -111.038 
0.00156013     0.101980      101.310 
0.00215596     0.344093     -35.5377 
0.00147630     0.460000     -90.0000 
0.00121426     0.357771     -116.565 
0.000651027     0.310483     -75.0686 
0.000600294     0.329848     -75.9638 
0.000592706     0.858836     -117.759 
0.000301260     0.223607     -116.565 
0.00158368     0.367151     -119.358 
0.00175412     0.480416     -92.3859 
0.00130071     0.335261     -72.6460 
0.00791791     0.220907     -5.19443 
0.00102784     0.394462     -120.466 
0.00171294     0.216333     -123.690 
0.00151051     0.868332     -118.926 
0.000996263     0.356090     -38.1572 
0.00162159     0.500400     -92.2906 
0.00160724     0.829699     -105.376 
0.00272010     0.160000      180.000 
0.00195353     0.632456     -108.435 
0.000864963     0.100000      90.0000 
0.00252088     0.360555     -33.6901 
0.000232037     0.504777     -123.690 
0.000231455     0.368782     -77.4712 
0.00180164     0.480000     -90.0000 
0.00103011     0.532541     -124.287 
0.000223363     0.354401     -73.6105 
0.000592835      1.30000     -104.250 
0.00134858     0.145602     -164.055 
0.000403163     0.233238     -120.964 
0.000638579     0.860930     -120.735 
0.000988552     0.377359     -122.005 
0.00122624      1.31469     -103.191 
0.00204653     0.323110     -68.1986 
0.000210620     0.349857     -120.964 
0.000399942     0.388330     -78.1113 
0.000765353     0.824621     -104.036 
0.000199639     0.903549     -117.699 
0.000386243     0.854400     -122.574 
0.000194427      1.31939     -104.036 
0.000662574     0.304631     -66.8014 
0.000191399     0.500000     -90.0000 
0.000187768     0.184391     -139.399 
0.000367754     0.930591     -118.217 
0.000366299     0.520384     -92.2026 
0.00120113      1.38101     -100.008 
0.000860542     0.565685     -98.1301 
0.000536917     0.585491     -97.8533 
0.000533081     0.805233     -104.381 
0.000268604     0.543323     -96.3402 
0.000522207     0.375766     -115.201 
0.000256564     0.799250     -121.701 
0.000735982     0.501597     -94.5739 
0.000497152     0.800500     -102.995 
0.000492911     0.635610     -102.724 
0.000247645     0.826801     -122.152 
0.000473886     0.340000     -118.072 
0.00131294     0.957079     -116.030 
0.00109910     0.809938     -122.905 
0.000236228      1.04403     -106.699 
0.000667371     0.820000     -102.680 
0.000864493      1.05773     -105.350 
0.000228824     0.563205     -96.1155 
0.000227208     0.295296     -118.301 
0.000224640     0.402492     -116.565 
0.000222312     0.604649     -124.216 
0.000416080     0.277849     -120.256 
0.000215913     0.631506     -100.954 
0.000409573     0.313050     -63.4349 
0.000214595     0.161245     -150.255 
0.000608660     0.632456     -124.695 
0.000210291     0.322490     -119.745 
0.000210166      1.07201     -104.036 
0.00233132     0.152315     -156.801 
0.000784493      1.04019     -88.8983 
0.00180974     0.331059     -64.9831 
0.00243831      1.29522     -103.392 
0.000205861     0.541479     -94.2364 
0.000204040      1.16103     -100.923 
0.000383395     0.384708     -117.897 
0.000568594     0.796241     -101.592 
0.000198866     0.561427     -94.0856 
0.000384055      1.06019     -88.9191 
0.00181429     0.820975     -124.077 
0.00154863     0.128062      128.660 
0.00228752      1.18457     -101.689 
0.000192240     0.670820     -100.305 
0.00116727     0.966023     -117.096 
0.000981311     0.305287     -121.608 
0.000859878      1.40071     -99.8658 
0.000186449     0.616117     -125.754 
0.000362532     0.540370     -92.1211 
0.000208080      1.04995     -107.745 
0.000680615     0.644050     -126.158 
0.00434082     0.367151     -29.3578 
0.00170538      1.06075     -87.8389 
0.000176475      1.20416     -101.497 
0.000175724     0.647765     -98.8807 
0.000172945      1.06320     -106.390 
0.00139150     0.243310     -9.46232 
0.000618023     0.815843     -101.310 
0.000486640      1.39743     -99.0579 
0.00192649     0.141421      135.000 
0.000165832     0.682642     -95.0425 
0.000338137      1.05622     -108.778 
0.00113698     0.170880     -159.444 
0.000586022     0.560357     -92.0454 
0.000686071     0.411825     -119.055 
0.000156550     0.680294     -91.6847 
0.000289626      1.05109     -111.194 
0.000301712     0.628013     -127.235 
0.00264816     0.164924     -165.964 
0.00174691     0.700286     -91.6366 
0.00138602      1.41718     -98.9306 
0.000506675     0.288444     -123.690 
0.000387684      1.04785     -113.629 
0.000277209     0.656049     -127.569 
0.000270180     0.948262     -117.646 
0.000135816     0.520000     -90.0000 
0.000755141      1.51222     -110.113 
0.000249884     0.398497     -72.4744 
0.000131945     0.580345     -91.9749 
0.00217307     0.832346     -125.218 
0.00146134      1.06170     -86.7603 
0.000709434     0.640312     -128.660 
0.000568010     0.835464     -101.041 
0.00175549     0.975295     -118.142 
0.000123675     0.460435     -87.5104 
0.000470479     0.429418     -117.759 
0.00106097     0.560000     -90.0000 
0.000665807      1.16499     -101.889 
0.00250190      1.53101     -109.855 
0.000114457     0.540000     -90.0000 
0.000414589      1.05603     -114.624 
0.000829736     0.340000     -61.9275 
0.000277467     0.480416     -87.6141 
0.000463157     0.957706     -118.706 
0.00224498     0.300000     -126.870 
0.000176912     0.404969     -69.7751 
0.000894491      1.41421     -98.1301 
0.000713932     0.652993     -130.030 
0.00185183     0.240832     -4.76364 
9.87598e-05     0.417612     -73.3008 
0.00238865     0.377359     -32.0054 
0.000551417     0.831865     -99.6888 
0.000917373     0.439090     -120.069 
0.000439828      1.08167     -86.8202 
0.000653257      1.06452     -115.602 
0.000168877     0.423792     -70.7100 
0.000769889      1.28561     -84.6442 
0.000871189     0.921954     -77.4712 
0.000709019     0.641249     -86.4237 
0.00143919      1.08296     -85.7636 
0.000937734     0.468188      19.9831 
0.00114823     0.627694     -59.3493 
0.000264429      1.27577     -103.601 
0.000494294     0.666033     -131.348 
0.000929466      1.43402     -98.0171 
0.000681356     0.161245     -172.875 
0.00139719      1.79644     -78.4399 
0.000431255     0.384708     -27.8973 
0.000324078      1.46860     -119.358 
0.000191145     0.984886     -119.168 
0.000423682      1.28763     -83.7581 
0.000120813     0.500400     -87.7094 
6.28220e-05      1.17796     -130.179 
-0.00400722     0.536656      153.435 
0.000119643      1.19331     -129.560 
0.000302485     0.851587     -99.4623 
5.98717e-05     0.421900     -121.430 
0.00141111      1.53792     -110.556 
0.000524505     0.816088     -126.027 
0.000202700      1.45121     -119.745 
5.86367e-05     0.520384     -87.7974 
0.00103711      1.82176     -87.4831 
0.000208828      1.17388     -134.310 
5.71786e-05     0.412311     -67.1663 
0.000163879      1.19633     -128.211 
-0.00208524     0.100000     -53.1301 
5.59886e-05      1.07331     -116.565 
0.000910879      1.46123     -120.426 
0.000961446     0.456946      23.1986 
0.000619325      1.30752     -83.8534 
9.86273e-05      1.17661     -121.799 
0.000409785     0.917823     -78.6901 
0.000146139      1.60798     -95.7106 
9.77780e-05      1.20880     -128.956 
4.87768e-05      1.00240     -118.610 
0.000327198     0.694262     -131.496 
0.000351075      1.20830     -102.426 
9.34195e-05     0.220000      0.00000 
-0.00355266    0.0721110     -56.3099 
0.000939001      1.62788     -95.6405 
-9.07150e-05      1.39714     -66.3706 
0.000132510      1.21211     -127.626 
0.000452294      1.50851     -83.9115 
0.000616864     0.788162     -125.707 
0.000329986      1.15966     -135.000 
-0.000969614      1.40528     -65.6235 
0.000326203      1.45382     -97.9072 
-0.00258417     0.412311      165.964 
0.000389281      1.19365     -121.293 
4.16612e-05      1.25172     -102.926 
0.00162715     0.344093      144.462 
0.000617686      1.77685     -78.3106 
0.000664486     0.161245      172.875 
0.000125537     0.992975     -117.597 
0.000510590     0.898221     -78.4399 
0.000188485     0.460435     -92.4896 
0.000113231      1.22442     -128.367 
-0.00135645     0.240832      85.2364 
0.000248202      1.12925     -67.0679 
0.000259685      1.22784     -102.225 
0.000586343      1.82099     -88.1118 
6.97510e-05     0.284253     -129.289 
8.38376e-05     0.855102     -100.784 
0.000364379     0.461736     -94.9697 
6.36427e-05      1.06902     -107.418 
0.000341135     0.164924      165.964 
0.000641902     0.272029     -126.027 
0.000115148      1.23693     -129.094 
9.05615e-05     0.871321     -99.2461 
0.000413255      1.10454     -84.8056 
0.000609327     0.449444      20.8545 
8.74443e-05     0.707672     -132.709 
0.000282832      1.15551     -66.5410 
-0.000123118     0.420476     -2.72631 
-0.000568973     0.496790     -40.1009 
0.000378078      1.48862     -83.8298 
-0.000482989     0.116619     -59.0362 
-0.00139743     0.421900     -5.44033 
-0.000404959      1.54738     -75.7841 
0.000899075     0.349857      149.036 
0.000140984     0.420476     -64.6538 
0.000150441     0.800000     -126.870 
0.000307459     0.772010     -126.573 
0.000518321     0.141421      171.870 
0.000150883      1.14560     -135.707 
-0.000203661     0.240832      48.3665 
2.71175e-05     0.940213     -88.7811 
0.000172899      1.78101     -77.6806 
0.000146725      1.01074     -117.072 
-0.000885239     0.488262     -34.9920 
0.000191544     0.429418     -62.2415 
5.08922e-05     0.463897     -97.4314 
0.000233956      1.64779     -95.5722 
9.68814e-05     0.894427     -79.6952 
0.000625869     0.367151      150.642 
0.000161748     0.451221     -102.804 
2.44177e-05      1.45671     -98.6864 
-0.000230022      1.20333     -74.5778 
0.000182226      1.49091     -83.0657 
0.000158910      1.49345     -69.6236 
0.000271898     0.134164     -153.435 
4.53506e-05     0.721388     -133.877 
8.96213e-05     0.855102     -79.2157 
-0.000287465    0.0447214     -26.5651 
2.21265e-05      1.01980     -115.560 
2.20415e-05      1.21078     -120.801 
-8.75073e-05     0.401995     -5.71059 
